# do not edit -- automatically generated Wed Aug 21 13:05:38 2019 from /susfu/kashyap/solar/ISSI/Capella_O7/binned_11t18.pro
# 
# events in wavelength region [14.00,18.00] Ang
# 
# BACKSCAL = 10.0000
#columns are:
#WLOW: wavelength grid bin lower bound [Angstrom]
#WHIGH: wavelength grid bin upper bound [Angstrom]
#SRCCT: counts in bin [ct]
#BKGCT: background counts in bin [ct]
#EA{p|n}_OBSID: effective area for each ObsID [cm^2 ksec]
WLOW	WHIGH	SRCCT	BKGCT	EAp_62435	EAp_01167	EAp_01244	EAp_62410	EAp_01246	EAp_62422	EAp_62423	EAp_01420	EAp_01248	EAp_00058	EAp_01009	EAp_02582	EAp_03479	EAp_03675	EAp_05041	EAp_05956	EAp_06165	EAp_06472	EAp_10600	EAp_11932	EAp_13090	EAp_14240	EAp_18359	EAp_18361	EAp_18363
N	N	N	N	N	N	N	N	N	N	N	N	N	N	N	N	N	N	N	N	N	N	N	N	N	N	N	N	N
14.0000	14.0067	264	93	458.21603	214.48167	171.62815	158.95401	206.72178	159.93446	206.22719	424.91623	1200.4885	478.06072	376.09802	396.98329	378.03407	371.86767	383.39362	407.18018	397.07477	398.88619	385.58808	396.97156	382.69245	388.93258	122.13435	121.93838	120.29003
14.0067	14.0134	315	79	458.22845	214.48728	171.63318	158.95835	206.72799	159.93890	206.23286	424.92746	1200.5080	478.07395	376.10751	397.03797	378.06440	371.87136	383.39750	407.18724	397.11890	398.91503	385.70945	396.98736	382.70428	388.95622	122.13671	121.93820	120.28846
14.0134	14.0201	321	77	458.25655	214.49861	171.64628	158.97019	206.74092	159.94992	206.24627	424.95483	1200.5774	478.10406	376.13128	397.10468	378.10851	371.88835	383.41494	407.21005	397.17509	398.95838	385.83237	397.01751	382.73066	388.99441	122.14211	121.94295	120.28855
14.0201	14.0268	358	99	458.28434	214.51186	171.65624	158.97920	206.75396	159.95996	206.25874	424.97816	1200.6448	478.13354	376.15329	397.17143	378.15272	371.90269	383.42981	407.23080	397.22917	399.00057	385.94764	397.04717	382.75571	389.03062	122.14600	121.94877	120.29151
14.0268	14.0335	421	126	458.31198	214.52604	171.66468	158.98685	206.76706	159.96951	206.27074	424.99955	1200.7113	478.16270	376.17445	397.23819	378.19697	371.91575	383.44346	407.25057	397.28222	399.04219	386.05922	397.07658	382.78013	389.06586	122.14918	121.95510	120.29585
14.0335	14.0402	420	91	458.33412	214.53550	171.67367	158.99450	206.77718	159.97659	206.28071	425.01978	1200.7605	478.18470	376.19213	397.29972	378.23771	371.92956	383.45594	407.26489	397.33400	399.08049	386.16372	397.10014	382.79904	389.09721	122.15243	121.95896	120.29956
14.0402	14.0469	408	105	458.35496	214.54386	171.68280	159.00214	206.78660	159.98308	206.29020	425.03974	1200.8056	478.20501	376.20897	397.36001	378.27762	371.94356	383.46815	407.27792	397.38548	399.11800	386.26655	397.12233	382.81665	389.12763	122.15571	121.96224	120.30312
14.0469	14.0536	451	117	458.37845	214.55602	171.69135	159.01055	206.79758	159.99227	206.30095	425.05949	1200.8574	478.23062	376.22724	397.42233	378.31661	371.96099	383.47955	407.29621	397.43596	399.15537	386.36584	397.14804	382.83717	389.15812	122.15491	121.96607	120.30987
14.0536	14.0603	443	101	458.40263	214.56857	171.70015	159.01918	206.80890	160.00165	206.31210	425.07999	1200.9113	478.25712	376.24615	397.48557	378.35629	371.97876	383.49165	407.31527	397.48713	399.19354	386.46445	397.17461	382.85849	389.18890	122.15439	121.97020	120.31676
14.0603	14.0670	406	98	458.43322	214.58306	171.71226	159.02979	206.82311	160.01146	206.32711	425.10955	1200.9849	478.29055	376.27166	397.55825	378.40488	371.99812	383.51255	407.33976	397.54732	399.24138	386.55754	397.20878	382.88713	389.22324	122.16014	121.97751	120.32285
14.0670	14.0737	380	98	458.46440	214.59797	171.72440	159.04060	206.83737	160.02199	206.34202	425.13898	1201.0598	478.32414	376.29768	397.63097	378.45356	372.01797	383.53321	407.36457	397.60741	399.28886	386.65145	397.24247	382.91552	389.25667	122.16487	121.98502	120.32967
14.0737	14.0804	376	94	458.49778	214.61442	171.73666	159.05214	206.85187	160.03514	206.35659	425.16795	1201.1391	478.35833	376.32556	397.70384	378.50254	372.03969	383.55299	407.39054	397.66712	399.33495	386.74839	397.27438	382.94294	389.28673	122.16579	121.99326	120.33917
14.0804	14.0871	344	99	458.53152	214.63016	171.74880	159.06390	206.86685	160.04726	206.37143	425.19701	1201.2223	478.39277	376.35292	397.77709	378.55247	372.06250	383.57301	407.41697	397.72734	399.38159	386.84649	397.30715	382.97096	389.31541	122.16816	122.00065	120.34876
14.0871	14.0938	341	104	458.56595	214.64455	171.76069	159.07609	206.88271	160.05741	206.38679	425.22623	1201.3129	478.42769	376.37927	397.85106	378.60420	372.08738	383.59349	407.44426	397.78852	399.42928	386.94677	397.34154	383.00009	389.34147	122.17328	122.00642	120.35855
14.0938	14.1005	302	107	458.60421	214.66221	171.77520	159.08910	206.90013	160.07045	206.40361	425.26082	1201.4112	478.46774	376.41032	397.92879	378.65859	372.11662	383.61894	407.47539	397.84887	399.48100	387.04719	397.38029	383.03235	389.36790	122.18001	122.01482	120.36922
14.1005	14.1072	281	89	458.64662	214.68342	171.79253	159.10300	206.91925	160.08660	206.42201	425.30123	1201.5178	478.51337	376.44648	398.01059	378.71586	372.15058	383.64979	407.51066	397.90834	399.53709	387.14778	397.42379	383.06801	389.39475	122.18849	122.02607	120.38086
14.1072	14.1139	248	99	458.62962	214.67534	171.78613	159.09724	206.91149	160.08080	206.41473	425.28586	1201.4669	478.49554	376.43172	398.04171	378.72414	372.13270	383.62754	407.49197	397.91437	399.54026	387.19961	397.41454	383.05392	389.36345	122.17979	122.02110	120.37736
14.1139	14.1206	260	109	458.57532	214.64888	171.76482	159.07913	206.88687	160.06123	206.39136	425.23549	1201.3171	478.43790	376.38500	398.04102	378.70167	372.08229	383.57198	407.43941	397.88687	399.51023	387.22086	397.37220	383.00861	389.29566	122.16031	122.00594	120.36437
14.1206	14.1273	304	121	458.51867	214.62311	171.74394	159.05911	206.86226	160.04228	206.36611	425.18323	1201.1720	478.38025	376.34053	398.03496	378.68135	372.03296	383.52070	407.38804	397.85252	399.48163	387.23996	397.33084	382.96223	389.23634	122.14319	121.98990	120.35040
14.1273	14.1340	306	107	458.46123	214.59757	171.72320	159.03844	206.83765	160.02353	206.34023	425.13034	1201.0284	478.32260	376.29680	398.02709	378.66175	371.98399	383.47087	407.33705	397.81587	399.45352	387.25835	397.28980	382.91551	389.17986	122.12686	121.97356	120.33611
14.1340	14.1407	294	89	458.40517	214.57183	171.70384	159.02094	206.81139	160.00381	206.31534	425.07859	1200.8848	478.26520	376.25033	398.02494	378.64152	371.93810	383.41592	407.28372	397.77677	399.42512	387.27217	397.24706	382.86904	389.12496	122.10692	121.95837	120.32318
14.1407	14.1474	326	106	458.34923	214.54606	171.68459	159.00379	206.78498	159.98395	206.29058	425.02697	1200.7412	478.20782	376.20353	398.02352	378.62124	371.89253	383.36036	407.23006	397.73735	399.39668	387.28545	397.20409	382.82258	389.07037	122.08655	121.94329	120.31041
14.1474	14.1541	321	99	458.28990	214.51971	171.66189	158.98277	206.76197	159.96437	206.26557	424.97421	1200.5953	478.14911	376.15818	398.02024	378.60328	371.84254	383.30777	407.17481	397.69790	399.36842	387.30221	397.16046	382.77386	389.02080	122.06969	121.92633	120.29687
14.1541	14.1608	426	120	458.22888	214.49323	171.63938	158.96205	206.73791	159.94469	206.24018	424.92114	1200.4465	478.09010	376.11216	398.01721	378.58476	371.79251	383.25450	407.12011	397.65915	399.34028	387.31697	397.11691	382.72489	388.97099	122.05270	121.90953	120.28336
14.1608	14.1675	457	120	458.15840	214.46604	171.61793	158.94301	206.70794	159.92444	206.21272	424.86640	1200.2811	478.02934	376.06237	398.01562	378.56305	371.74218	383.19749	407.06850	397.62427	399.31288	387.32044	397.07380	382.67444	388.91979	122.03502	121.89368	120.26996
14.1675	14.1742	608	114	458.08923	214.44113	171.59790	158.92487	206.68171	159.90580	206.18811	424.81581	1200.1305	477.97309	376.01704	398.01513	378.54648	371.69567	383.14457	407.01984	397.59371	399.28858	387.33013	397.03333	382.62817	388.87275	122.01865	121.87886	120.25746
14.1742	14.1809	783	125	458.02327	214.42190	171.58140	158.90898	206.66482	159.89119	206.17059	424.77556	1200.0170	477.92807	375.98284	398.01740	378.54272	371.65865	383.10182	406.97849	397.57392	399.27199	387.35532	396.99938	382.59231	388.83608	122.00554	121.86661	120.24724
14.1809	14.1876	1061	116	457.95633	214.40164	171.56484	158.89351	206.64551	159.87583	206.15139	424.73498	1199.9043	477.88255	375.94716	398.02386	378.54232	371.62183	383.05851	406.93752	397.55586	399.25520	387.38006	396.96642	382.55402	388.79894	121.99287	121.85409	120.23742
14.1876	14.1943	1369	137	457.88804	214.37996	171.54817	158.87862	206.62286	159.85946	206.12988	424.69398	1199.7928	477.83635	375.90944	398.03609	378.54656	371.58529	383.01444	406.89709	397.54018	399.23814	387.40416	396.93482	382.51239	388.76116	121.98082	121.84120	120.22815
14.1943	14.2010	1537	168	457.82209	214.35916	171.53215	158.86418	206.60326	159.84394	206.10960	424.65274	1199.6793	477.79001	375.87410	398.04569	378.55442	371.54616	382.97164	406.85737	397.52484	399.22039	387.42758	396.90306	382.47331	388.72529	121.96700	121.82789	120.21884
14.2010	14.2077	1690	135	457.75801	214.33906	171.51664	158.85009	206.58608	159.82908	206.09031	424.61129	1199.5642	477.74355	375.84066	398.05319	378.56519	371.50495	382.92985	406.81823	397.50977	399.20209	387.45046	396.87116	382.43627	388.69096	121.95176	121.81422	120.20948
14.2077	14.2144	1630	135	457.69980	214.31839	171.49974	158.83386	206.56596	159.81360	206.07092	424.57120	1199.4528	477.69795	375.80412	398.05782	378.56701	371.46572	382.88702	406.77949	397.49334	399.18432	387.47342	396.83936	382.39737	388.65683	121.93822	121.80147	120.20022
14.2144	14.2211	1435	158	457.64423	214.29746	171.48222	158.81667	206.54450	159.79785	206.05149	424.53173	1199.3431	477.65274	375.76619	398.06114	378.56478	371.42739	382.84372	406.74093	397.47630	399.16678	387.49642	396.80760	382.35764	388.62278	121.92545	121.78914	120.19100
14.2211	14.2278	1259	132	457.60912	214.28738	171.47568	158.81023	206.53608	159.79096	206.04191	424.51247	1199.2811	477.63022	375.74962	398.09084	378.56913	371.40835	382.81929	406.72159	397.48287	399.17022	387.53589	396.79692	382.33688	388.60822	121.91782	121.78315	120.18820
14.2278	14.2345	1063	101	457.57839	214.27962	171.47150	158.80609	206.53046	159.78598	206.03443	424.49754	1199.2293	477.61256	375.73764	398.12618	378.57490	371.39345	382.79889	406.70637	397.49451	399.17815	387.57888	396.79076	382.32020	388.59783	121.91130	121.77853	120.18678
14.2345	14.2412	869	105	457.54998	214.27407	171.46337	158.79929	206.52291	159.78049	206.02804	424.48275	1199.1872	477.59877	375.72481	398.15457	378.57528	371.37809	382.77922	406.69177	397.50600	399.18544	387.62225	396.78238	382.30190	388.58716	121.90649	121.77363	120.18444
14.2412	14.2479	831	95	457.52170	214.26819	171.45545	158.79255	206.51521	159.77494	206.02156	424.46781	1199.1460	477.58467	375.71193	398.18355	378.57539	371.36275	382.75953	406.67730	397.51771	399.19276	387.66536	396.77387	382.28364	388.57662	121.90173	121.76875	120.18222
14.2479	14.2546	821	113	457.49360	214.25813	171.45140	158.78761	206.50691	159.76898	206.01365	424.45118	1199.1096	477.56591	375.69893	398.22129	378.57525	371.34783	382.73934	406.66392	397.53170	399.20067	387.70582	396.76514	382.26639	388.56744	121.89675	121.76428	120.18157
14.2546	14.2613	789	111	457.46539	214.24914	171.44653	158.78230	206.49846	159.76325	206.00579	424.43543	1199.0727	477.54799	375.68574	398.25672	378.57476	371.33313	382.71921	406.64977	397.54559	399.20819	387.74857	396.75691	382.24854	388.55828	121.89172	121.75939	120.18047
14.2613	14.2680	662	115	457.43684	214.24377	171.43893	158.77576	206.48950	159.75828	205.99807	424.42272	1199.0335	477.53296	375.67192	398.28422	378.57306	371.31922	382.69932	406.63303	397.55914	399.21439	387.79917	396.75040	382.22869	388.54918	121.88647	121.75304	120.17782
14.2680	14.2747	592	111	457.40944	214.23700	171.43203	158.76846	206.47761	159.75259	205.99066	424.40860	1198.9938	477.51663	375.65805	398.31526	378.57203	371.30631	382.67918	406.61770	397.57210	399.22111	387.84906	396.74329	382.20885	388.54017	121.88118	121.74745	120.17608
14.2747	14.2814	460	113	457.38407	214.22775	171.42640	158.75983	206.46054	159.74562	205.98377	424.39199	1198.9534	477.49797	375.64408	398.35256	378.57217	371.29516	382.65860	406.60485	397.58402	399.22874	387.89770	396.73513	382.18904	388.53132	121.87581	121.74321	120.17592
14.2814	14.2881	366	97	457.35179	214.21754	171.41833	158.74786	206.43959	159.73804	205.97382	424.37110	1198.8933	477.47476	375.62607	398.37960	378.56741	371.27625	382.63378	406.58599	397.59416	399.23235	387.94161	396.72264	382.16329	388.51857	121.86904	121.73721	120.17295
14.2881	14.2948	328	118	457.31246	214.20635	171.40775	158.73247	206.41470	159.72985	205.96074	424.34584	1198.8131	477.44691	375.60394	398.39614	378.55766	371.24941	382.60466	406.56099	397.60247	399.23184	387.98068	396.70571	382.13148	388.50181	121.86087	121.72940	120.16709
14.2948	14.3015	323	95	457.29656	214.20344	171.40489	158.72315	206.40291	159.72771	205.95728	424.34067	1198.7966	477.44092	375.60070	398.43762	378.56593	371.24400	382.59264	406.55612	397.62767	399.24990	388.03754	396.70732	382.11841	388.50319	121.85783	121.72699	120.16903
14.3015	14.3082	244	79	457.29446	214.20542	171.40657	158.71741	206.39885	159.72914	205.95949	424.34733	1198.8175	477.44782	375.60858	398.49379	378.58481	371.25120	382.59069	406.56311	397.66281	399.27890	388.10488	396.71984	382.11636	388.51527	121.85783	121.72776	120.17557
14.3082	14.3149	255	108	457.29216	214.20810	171.40443	158.71120	206.39260	159.73174	205.95828	424.35196	1198.8435	477.45482	375.61436	398.54558	378.60345	371.25837	382.59223	406.56973	397.69888	399.30729	388.17014	396.73150	382.10844	388.52799	121.85903	121.72951	120.18164
14.3149	14.3216	242	101	457.28979	214.21100	171.40112	158.70484	206.38566	159.73471	205.95601	424.35596	1198.8711	477.46186	375.61947	398.59601	378.62202	371.26552	382.59486	406.57623	397.73524	399.33549	388.23476	396.74290	382.09871	388.54092	121.86058	121.73157	120.18755
14.3216	14.3283	292	95	457.28660	214.21434	171.39646	158.70272	206.38443	159.73433	205.95013	424.36371	1198.8912	477.46959	375.62651	398.64895	378.64191	371.27014	382.59208	406.58321	397.77056	399.36466	388.30070	396.75628	382.08488	388.55518	121.86222	121.73427	120.19229
14.3283	14.3350	332	98	457.28540	214.21853	171.39235	158.70171	206.38463	159.73412	205.94467	424.37362	1198.9157	477.47947	375.63537	398.70387	378.66357	371.27610	382.59056	406.59204	397.80748	399.39568	388.36812	396.77163	382.07225	388.57125	121.86440	121.73755	120.19752
14.3350	14.3417	397	106	457.34694	214.24690	171.40946	158.71974	206.40824	159.75046	205.96427	424.43612	1199.0965	477.55163	375.69267	398.80982	378.73384	371.33123	382.64526	406.65488	397.89644	399.47898	388.47536	396.83973	382.10948	388.63740	121.88292	121.75584	120.22141
14.3417	14.3484	468	100	457.41200	214.27645	171.42863	158.74015	206.43440	159.76803	205.98672	424.50254	1199.2886	477.62810	375.75356	398.91875	378.80781	371.39046	382.70279	406.72129	397.98892	399.56633	388.58654	396.91127	382.14959	388.70739	121.90237	121.77523	120.24588
14.3484	14.3551	560	114	457.49473	214.31199	171.45812	158.77248	206.47336	159.79173	206.02352	424.58865	1199.5372	477.72623	375.83251	399.04270	378.90033	371.47026	382.77458	406.80554	398.09913	399.67405	388.71750	397.00011	382.20424	388.79674	121.92652	121.80022	120.27324
14.3551	14.3618	679	104	457.57700	214.34737	171.48672	158.80203	206.51186	159.81643	206.05877	424.67336	1199.7836	477.81952	375.90989	399.16735	378.99160	371.54786	382.84549	406.88917	398.20829	399.78030	388.84597	397.08790	382.26039	388.88506	121.95055	121.82461	120.30073
14.3618	14.3685	716	105	457.65815	214.38236	171.51325	158.82510	206.54925	159.84344	206.09042	424.75479	1200.0248	477.90151	375.98357	399.29355	379.07997	371.62031	382.91435	406.97129	398.31499	399.88308	388.96860	397.17324	382.32004	388.97094	121.97430	121.84760	120.32852
14.3685	14.3752	725	121	457.73596	214.41451	171.54104	158.85030	206.58429	159.86868	206.12298	424.83328	1200.2601	477.97376	376.05541	399.41787	379.16585	371.69049	382.98114	407.04981	398.42156	399.98415	389.09098	397.25607	382.38391	389.05466	121.99689	121.87094	120.35508
14.3752	14.3819	795	114	457.80944	214.44297	171.57045	158.87827	206.61628	159.89161	206.15672	424.90796	1200.4877	478.03338	376.12488	399.53977	379.24855	371.75775	383.04526	407.12365	398.52797	400.08301	389.21308	397.33568	382.45328	389.13558	122.01797	121.89475	120.38005
14.3819	14.3886	667	122	457.88351	214.47390	171.59705	158.90436	206.65006	159.91701	206.18981	424.98143	1200.7114	478.09697	376.19431	399.65916	379.33169	371.82693	383.10548	407.19916	398.63775	400.18236	389.33474	397.41540	382.52792	389.21818	122.03984	121.91754	120.40461
14.3886	14.3953	629	128	457.95800	214.50668	171.62153	158.92902	206.68519	159.94427	206.22242	425.05396	1200.9321	478.16355	376.26371	399.77664	379.41517	371.89756	383.16272	407.27593	398.75005	400.28207	389.45605	397.49519	382.60653	389.30204	122.06228	121.93957	120.42887
14.3953	14.4020	544	113	458.03276	214.53916	171.65043	158.95515	206.72014	159.96901	206.25656	425.12727	1201.1564	478.23441	376.33507	399.90517	379.50080	371.96885	383.20922	407.35269	398.86370	400.38286	389.57892	397.57748	382.68851	389.38749	122.08555	121.96287	120.45382
14.4020	14.4087	503	108	458.10763	214.57152	171.68118	158.98190	206.75501	159.99269	206.29135	425.20090	1201.3823	478.30706	376.40726	400.03836	379.58733	372.04041	383.25121	407.42944	398.97792	400.48410	389.70245	397.66084	382.77191	389.47361	122.10917	121.98671	120.47907
14.4087	14.4154	463	102	458.19460	214.61291	171.71387	159.01282	206.79400	160.02434	206.33075	425.28101	1201.6413	478.39292	376.48841	400.16808	379.68085	372.11781	383.30131	407.51691	399.10142	400.59516	389.83535	397.75092	382.86310	389.56806	122.13434	122.01232	120.50619
14.4154	14.4221	494	118	458.28390	214.65604	171.74693	159.04453	206.83378	160.05752	206.37104	425.36235	1201.9068	478.48133	376.57128	400.29710	379.77569	372.19633	383.35298	407.60642	399.22670	400.70809	389.97003	397.84230	382.95579	389.66410	122.15981	122.03827	120.53367
14.4221	14.4288	427	114	458.38767	214.70318	171.78528	159.07947	206.88460	160.09212	206.41832	425.45818	1202.2119	478.58807	376.66545	400.44814	379.88482	372.29197	383.41223	407.70955	399.36873	400.83654	390.11728	397.94980	383.06249	389.77488	122.19010	122.06898	120.56557
14.4288	14.4355	415	93	458.49158	214.75067	171.82413	159.11479	206.93486	160.12714	206.46597	425.55502	1202.5180	478.69561	376.76006	400.59926	379.99437	372.38787	383.47305	407.81304	399.51198	400.96568	390.26458	398.05777	383.16950	389.88617	122.22057	122.09980	120.59767
14.4355	14.4422	401	109	458.59313	214.80003	171.86578	159.15242	206.97778	160.16532	206.51503	425.65669	1202.8235	478.80539	376.85556	400.74564	380.10390	372.48167	383.54509	407.91622	399.66132	401.09674	390.40901	398.16563	383.27562	389.99811	122.25123	122.13036	120.63024
14.4422	14.4489	359	104	458.69537	214.84931	171.90655	159.18999	207.02294	160.20310	206.56314	425.75753	1203.1265	478.91488	376.95098	400.89321	380.21352	372.57528	383.61746	408.01961	399.81213	401.22795	390.55337	398.27300	383.38195	390.10971	122.28177	122.16108	120.66259
14.4489	14.4556	385	118	458.79988	214.89836	171.94458	159.22740	207.07522	160.23964	206.60829	425.85576	1203.4221	479.02351	377.04616	401.04460	380.32346	372.66834	383.69089	408.12371	399.96763	401.35968	390.69755	398.37891	383.48896	390.22032	122.31188	122.19234	120.69423
14.4556	14.4623	332	103	458.90138	214.94709	171.98309	159.26376	207.12423	160.27624	206.65494	425.95528	1203.7218	479.13215	377.14144	401.19425	380.43309	372.76205	383.76452	408.22706	400.12048	401.49247	390.84232	398.48553	383.59559	390.32986	122.34242	122.22358	120.72621
14.4623	14.4690	337	96	458.99786	214.99527	172.02235	159.29838	207.16782	160.31295	206.70408	426.05692	1204.0285	479.24079	377.23687	401.34097	380.54219	372.85678	383.83848	408.32910	400.26890	401.62699	390.98806	398.59331	383.70155	390.43760	122.37363	122.25479	120.75874
14.4690	14.4757	290	115	459.09568	215.04495	172.06258	159.33533	207.21438	160.34996	206.75224	426.15757	1204.3353	479.34971	377.33183	401.49022	380.65130	372.95146	383.91267	408.43169	400.41420	401.76407	391.13425	398.69913	383.80784	390.54299	122.40449	122.28541	120.79064
14.4757	14.4824	335	119	459.19480	215.09608	172.10373	159.37454	207.26381	160.38728	206.79944	426.25726	1204.6425	479.45891	377.42636	401.64194	380.76045	373.04609	383.98710	408.53483	400.55653	401.90363	391.28090	398.80307	383.91446	390.64614	122.43501	122.31548	120.82194
14.4824	14.4891	336	124	459.33897	215.16920	172.16109	159.42770	207.33548	160.44122	206.86922	426.40559	1205.0816	479.62070	377.56132	401.83484	380.91174	373.18065	384.10837	408.68232	400.73900	402.09333	391.47343	398.94704	384.06292	390.79258	122.47908	122.35995	120.86718
14.4891	14.4958	323	90	459.50806	215.25447	172.22740	159.48857	207.41946	160.50435	206.95146	426.58082	1205.5936	479.81157	377.71863	402.05051	381.08634	373.33728	384.25556	408.85434	400.94366	402.31074	391.69132	399.11313	384.23451	390.96295	122.53065	122.41238	120.92013
14.4958	14.5025	306	102	459.68993	215.34543	172.30210	159.55706	207.50545	160.57363	207.03946	426.76644	1206.1343	480.01515	377.88759	402.27859	381.27011	373.50403	384.40650	409.03820	401.15442	402.53759	391.91455	399.28634	384.41536	391.14195	122.58491	122.46643	120.97593
14.5025	14.5092	322	100	459.87547	215.43804	172.37920	159.62773	207.59203	160.64466	207.12911	426.95504	1206.6832	480.22238	378.05990	402.51023	381.45653	373.67368	384.55854	409.22548	401.36696	402.76717	392.13935	399.46160	384.59888	391.32343	122.63995	122.52095	121.03255
14.5092	14.5159	392	109	460.04546	215.53190	172.45054	159.69594	207.68215	160.71234	207.21840	427.14171	1207.2195	480.43092	378.23083	402.73983	381.64170	373.84419	384.71487	409.41000	401.57363	402.97944	392.36475	399.62250	384.78296	391.50603	122.69549	122.57705	121.08888
14.5159	14.5226	459	97	460.21457	215.62566	172.52156	159.76385	207.77248	160.77983	207.30753	427.32821	1207.7550	480.63928	378.40148	402.96941	381.82678	374.01450	384.87162	409.59426	401.77955	403.18948	392.59015	399.78169	384.96699	391.68863	122.75103	122.63327	121.14520
14.5226	14.5293	564	105	460.39682	215.71541	172.59726	159.83059	207.86031	160.85026	207.39433	427.51557	1208.3039	480.84201	378.56953	403.20330	382.01309	374.17937	385.02891	409.77922	401.98220	403.38844	392.81482	399.93472	385.14942	391.86967	122.80577	122.68864	121.20197
14.5293	14.5360	645	92	460.58097	215.80617	172.67264	159.89788	207.94781	160.92019	207.48154	427.70296	1208.8527	481.04585	378.73575	403.43620	382.19950	374.34551	385.18590	409.96427	402.18493	403.58681	393.03898	400.08779	385.33199	392.05073	122.86069	122.74394	121.25860
14.5360	14.5427	669	111	460.77362	215.90146	172.74656	159.96758	208.03374	160.98779	207.57051	427.89038	1209.4008	481.25450	378.89356	403.66445	382.38625	374.51731	385.34137	410.14962	402.38791	403.78240	393.26074	400.24093	385.51503	392.23178	122.91641	122.79889	121.31460
14.5427	14.5494	698	117	460.96907	215.99456	172.81978	160.03610	208.12042	161.05532	207.65918	428.07656	1209.9450	481.46082	379.04784	403.89253	382.57142	374.68684	385.49619	410.33369	402.58985	403.97707	393.48142	400.39547	385.69725	392.41225	122.97200	122.85344	121.37040
14.5494	14.5561	630	105	461.17066	216.08295	172.89148	160.10206	208.20876	161.12276	207.74718	428.26011	1210.4809	481.66213	379.19448	404.12028	382.75325	374.85147	385.64962	410.51502	402.78959	404.16980	393.69983	400.55310	385.87775	392.59155	123.02733	122.90718	121.42578
14.5561	14.5628	528	119	461.37226	216.17096	172.96251	160.16701	208.29347	161.18923	207.83209	428.44062	1211.0100	481.85993	379.33991	404.34812	382.93327	375.01421	385.80046	410.69446	402.98709	404.35983	393.91651	400.70851	386.05583	392.76809	123.08119	122.96048	121.48064
14.5628	14.5695	478	112	461.57383	216.25850	173.03273	160.23070	208.37374	161.25451	207.91317	428.61739	1211.5306	482.05342	379.48381	404.57601	383.11106	375.17460	385.94810	410.87153	403.18181	404.54653	394.13103	400.86118	386.23092	392.94122	123.13324	123.01326	121.53487
14.5695	14.5762	459	117	461.77430	216.34575	173.10161	160.29447	208.45520	161.31969	207.99642	428.79420	1212.0418	482.24820	379.62888	404.80043	383.28900	375.33478	386.09636	411.04729	403.37618	404.73333	394.34939	401.01920	386.40574	393.11378	123.18521	123.06598	121.58835
14.5762	14.5829	362	96	461.97401	216.43281	173.16956	160.35829	208.53752	161.38480	208.08120	428.97105	1212.5465	482.44390	379.77481	405.02238	383.46708	375.49482	386.24508	411.22214	403.57031	404.92022	394.57051	401.18107	386.58040	393.28594	123.23712	123.11867	121.64132
14.5829	14.5896	341	106	462.17323	216.51940	173.23776	160.42052	208.61718	161.44912	208.16392	429.14780	1213.0623	482.63785	379.92422	405.24157	383.64418	375.65532	386.39394	411.39722	403.76347	405.10643	394.78745	401.33937	386.75422	393.45857	123.28989	123.17152	121.69559
14.5896	14.5963	320	86	462.37222	216.60580	173.30604	160.48213	208.69577	161.51311	208.24583	429.32446	1213.5825	482.83107	380.07498	405.45962	383.82086	375.81596	386.54284	411.57235	403.95622	405.29234	395.00272	401.49624	386.92768	393.63134	123.34297	123.22442	121.75037
14.5963	14.6030	298	97	462.56999	216.69104	173.37440	160.54220	208.77618	161.57620	208.32658	429.49946	1214.0956	483.02094	380.22187	405.68388	383.99724	375.97308	386.68792	411.74507	404.14810	405.47809	395.21832	401.65547	387.09980	393.80288	123.39491	123.27667	121.80230
14.6030	14.6097	261	108	462.76758	216.77610	173.44277	160.60203	208.85692	161.63913	208.40715	429.67420	1214.6076	483.21027	380.36811	405.90925	384.17359	376.12962	386.83236	411.91739	404.33986	405.66384	395.43400	401.81514	387.27170	393.97423	123.44665	123.32880	121.85374
14.6097	14.6164	231	111	462.95889	216.85892	173.50528	160.66282	208.91519	161.69983	208.48396	429.83917	1215.0967	483.39642	380.51280	406.11927	384.34513	376.28462	386.98017	412.08407	404.52506	405.84443	395.63933	401.97199	387.43841	394.14043	123.49708	123.37786	121.90669
14.6164	14.6231	245	109	463.15113	216.94211	173.56831	160.72241	208.97510	161.76082	208.56134	430.00544	1215.5869	483.58316	380.65837	406.33166	384.51778	376.44023	387.12862	412.25181	404.71121	406.02621	395.84634	402.12943	387.60604	394.30745	123.54780	123.42741	121.95964
14.6231	14.6298	241	97	463.35099	217.02824	173.63570	160.77324	209.04919	161.82419	208.64330	430.18222	1216.0872	483.77462	380.81064	406.56305	384.69910	376.60066	387.28153	412.42792	404.90504	406.21736	396.06683	402.29158	387.78104	394.48114	123.60088	123.48094	122.01262
14.6298	14.6365	240	103	463.54127	217.10924	173.69869	160.82161	209.12083	161.88390	208.71943	430.34911	1216.5531	483.95594	380.95502	406.78350	384.87168	376.75234	387.42635	412.59487	405.09055	406.39906	396.27602	402.44645	387.94747	394.64658	123.65102	123.53156	122.06336
14.6365	14.6432	266	87	463.70354	217.17527	173.74882	160.86276	209.18532	161.93294	208.77850	430.48711	1216.9182	484.10764	381.07635	406.97199	385.01872	376.87845	387.54747	412.73510	405.25169	406.55315	396.45217	402.58005	388.08886	394.78789	123.69259	123.57372	122.10756
14.6432	14.6499	291	107	463.85683	217.23794	173.79459	160.90446	209.24808	161.97890	208.83305	430.61557	1217.2726	484.24964	381.19167	407.15675	385.15926	377.00002	387.66169	412.86806	405.40543	406.70084	396.62567	402.70571	388.22353	394.92182	123.73239	123.61386	122.14926
14.6499	14.6566	314	114	463.99611	217.29534	173.83355	160.94701	209.30817	162.02005	208.88056	430.72911	1217.6102	484.37646	381.29759	407.33574	385.28966	377.11454	387.76510	412.98969	405.54763	406.83855	396.79508	402.81897	388.34771	395.04424	123.76944	123.65087	122.18705
14.6566	14.6633	297	107	464.13612	217.34992	173.86948	160.99285	209.37036	162.05946	208.92703	430.84238	1217.9227	484.50287	381.40204	407.50973	385.42062	377.22763	387.86699	413.11197	405.68937	406.97606	396.96344	402.93134	388.47224	395.16771	123.80627	123.68715	122.22520
14.6633	14.6700	352	92	464.27676	217.40193	173.90264	161.04166	209.43446	162.09729	208.97254	430.95536	1218.2125	484.62888	381.50510	407.67914	385.55208	377.33941	387.96747	413.23483	405.83066	407.11337	397.13080	403.04287	388.59705	395.29209	123.84290	123.72276	122.26365
14.6700	14.6767	335	107	464.41688	217.45405	173.93932	161.08966	209.49814	162.13044	209.01723	431.06907	1218.5212	484.75195	381.60888	407.85743	385.68265	377.44920	388.06821	413.35665	405.97140	407.24986	397.29690	403.15712	388.72122	395.41456	123.87975	123.75912	122.30191
14.6767	14.6834	306	99	464.55673	217.50621	173.97782	161.13726	209.56160	162.16116	209.06150	431.18316	1218.8399	484.87352	381.71305	408.04036	385.81278	377.55798	388.16910	413.47795	406.11186	407.38595	397.46237	403.27279	388.84508	395.53604	123.91671	123.79587	122.34007
14.6834	14.6901	284	75	464.69090	217.55415	174.02442	161.18361	209.62062	162.19368	209.11192	431.28988	1219.1261	484.98755	381.81067	408.21321	385.93722	377.66383	388.26666	413.59301	406.24757	407.51703	397.61920	403.37988	388.96302	395.65346	123.95179	123.83141	122.37600
14.6901	14.6968	243	94	464.82356	217.60096	174.07313	161.22964	209.67847	162.22667	209.16394	431.39465	1219.4039	485.09959	381.90656	408.38340	386.06015	377.76891	388.36333	413.70642	406.38202	407.64678	397.77376	403.48470	389.07940	395.76979	123.98637	123.86662	122.41134
14.6968	14.7035	238	79	464.94167	217.63923	174.11695	161.27092	209.73350	162.26182	209.21725	431.48488	1219.6629	485.19051	381.99482	408.54466	386.17180	377.86526	388.43784	413.80838	406.50418	407.76523	397.91976	403.58164	389.18559	395.87435	124.01616	123.89709	122.44429
14.7035	14.7102	239	86	465.05725	217.67644	174.15991	161.31134	209.78740	162.29695	209.26991	431.57283	1219.9181	485.27769	382.08098	408.70374	386.28155	377.95932	388.51015	413.90817	406.62416	407.88153	398.06370	403.67677	389.28975	395.97680	124.04527	123.92677	122.47662
14.7102	14.7169	232	104	465.15146	217.70773	174.19558	161.34419	209.82715	162.32898	209.31103	431.64339	1220.1383	485.33272	382.14399	408.83978	386.37572	378.02860	388.57547	413.98838	406.72520	407.97811	398.18600	403.75363	389.37487	396.06109	124.06962	123.95009	122.50210
14.7169	14.7236	238	104	465.24568	217.74111	174.23109	161.37704	209.86791	162.36116	209.35256	431.71350	1220.3555	485.38991	382.20793	408.97568	386.46920	378.09902	388.63815	414.06818	406.82626	408.07461	398.30901	403.82969	389.45993	396.14514	124.09402	123.97364	122.52776
14.7236	14.7303	233	101	465.34001	217.78316	174.26592	161.40988	209.91290	162.39402	209.39581	431.78186	1220.5608	485.45594	382.27577	409.11108	386.55987	378.17418	388.69004	414.14635	406.92742	408.17081	398.43506	403.90251	389.54476	396.22828	124.11863	123.99819	122.55418
14.7303	14.7370	247	96	465.43366	217.82539	174.30075	161.44209	209.95631	162.42663	209.43846	431.85090	1220.7663	485.52646	382.34284	409.24274	386.65096	378.24938	388.74063	414.22400	407.02847	408.26705	398.55972	403.97633	389.62965	396.31185	124.14336	124.02283	122.58033
14.7370	14.7437	250	107	465.52589	217.86797	174.33555	161.47300	209.99648	162.45875	209.47988	431.92129	1220.9722	485.60606	382.40832	409.36672	386.74286	378.32460	388.78857	414.30058	407.12923	408.36330	398.68151	404.05216	389.71460	396.39629	124.16832	124.04764	122.60593
14.7437	14.7504	270	109	465.61944	217.91103	174.37108	161.50530	210.03855	162.49119	209.52137	431.98942	1221.1778	485.69326	382.47360	409.49177	386.83518	378.39753	388.83716	414.37103	407.22984	408.45928	398.80574	404.12792	389.79947	396.47977	124.19253	124.07206	122.63176
14.7504	14.7571	269	115	465.71451	217.95463	174.40746	161.53921	210.08281	162.52401	209.56297	432.05494	1221.3829	485.78923	382.53867	409.61807	386.92801	378.46781	388.88652	414.43444	407.33028	408.55497	398.93280	404.20361	389.88424	396.56215	124.21588	124.09603	122.65785
14.7571	14.7638	256	111	465.78888	217.98954	174.43515	161.56465	210.11631	162.55005	209.59698	432.10757	1221.5402	485.86730	382.58998	409.72928	387.00461	378.52473	388.92788	414.48038	407.41504	408.63477	399.04398	404.26175	389.95369	396.62953	124.23480	124.11493	122.67891
14.7638	14.7705	241	87	465.84936	218.01861	174.45700	161.58440	210.14258	162.57153	209.62591	432.15155	1221.6655	485.93333	382.63206	409.83035	387.07031	378.57266	388.96387	414.51459	407.48926	408.70390	399.14448	404.30811	390.01284	396.68684	124.25073	124.13041	122.69659
14.7705	14.7772	202	102	465.91384	218.04821	174.48201	161.60731	210.17177	162.59414	209.65421	432.19858	1221.8067	485.99985	382.67286	409.93423	387.13806	378.62347	389.00756	414.54921	407.56376	408.77441	399.24218	404.35856	390.07322	396.74551	124.26699	124.14617	122.71472
14.7772	14.7839	209	94	465.97980	218.07801	174.50818	161.63138	210.20203	162.61717	209.68228	432.24673	1221.9539	486.06655	382.71319	410.03913	387.20656	378.67534	389.05406	414.58396	407.63837	408.84543	399.33888	404.41052	390.13406	396.80468	124.28337	124.16204	122.73303
14.7839	14.7906	167	103	466.04164	218.10805	174.53056	161.65187	210.22994	162.63910	209.71128	432.29681	1222.0821	486.13179	382.75234	410.13681	387.27286	378.72221	389.10219	414.61955	407.71247	408.91506	399.43340	404.45961	390.19229	396.86176	124.29877	124.17828	122.75048
14.7906	14.7973	174	113	466.10268	218.13805	174.55231	161.67176	210.25742	162.66079	209.74034	432.34703	1222.2070	486.19661	382.79117	410.23322	387.33867	378.76818	389.15043	414.65511	407.78634	408.98432	399.52743	404.50813	390.24997	396.91839	124.31398	124.19454	122.76775
14.7973	14.8040	175	97	466.04707	218.10998	174.53267	161.65380	210.23193	162.64071	209.71376	432.28870	1222.0220	486.13668	382.73132	410.23023	387.30769	378.71809	389.09766	414.58819	407.75833	408.94893	399.52466	404.45414	390.20965	396.87468	124.29959	124.17907	122.75444
14.8040	14.8107	205	97	465.99021	218.08194	174.51228	161.63501	210.20603	162.62035	209.68699	432.22909	1221.8344	486.07586	382.67066	410.22642	387.27611	378.66601	389.04495	414.52047	407.72867	408.91304	399.52136	404.39944	390.16829	396.83001	124.28469	124.16318	122.74080
14.8107	14.8174	168	107	465.92536	218.05413	174.48715	161.61093	210.17748	162.59818	209.65895	432.16136	1221.6308	486.00947	382.60495	410.21735	387.24072	378.60138	388.99262	414.44773	407.68854	408.87402	399.51461	404.34027	390.12038	396.77929	124.26650	124.14455	122.72506
14.8174	14.8241	192	100	465.85961	218.02467	174.46207	161.58723	210.14824	162.57544	209.63006	432.09358	1221.4244	485.94157	382.53786	410.20646	387.20466	378.53337	388.93895	414.37571	407.64871	408.83424	399.50603	404.27942	390.07189	396.72789	124.24801	124.12586	122.70926
14.8241	14.8308	198	83	465.79135	217.99073	174.43707	161.56452	210.11710	162.55117	209.59883	432.02557	1221.2105	485.86953	382.46698	410.19066	387.16676	378.45618	388.88156	414.30552	407.60967	408.79233	399.49249	404.21398	390.02176	396.67463	124.22867	124.10697	122.69329
14.8308	14.8375	192	96	465.71824	217.95579	174.41001	161.53932	210.08419	162.52580	209.56566	431.95266	1220.9886	485.79306	382.39191	410.17059	387.12363	378.37450	388.82261	414.22918	407.56527	408.74587	399.47353	404.14460	389.96719	396.61720	124.20839	124.08612	122.67552
14.8375	14.8442	186	84	465.63801	217.91938	174.37991	161.51045	210.04867	162.49880	209.52962	431.87256	1220.7549	485.71010	382.31067	410.14425	387.07282	378.28620	388.76139	414.14379	407.51298	408.69271	399.44662	404.06944	389.90609	396.55363	124.18675	124.06240	122.65509
14.8442	14.8509	184	93	465.56360	217.88463	174.35243	161.48491	210.01523	162.47316	209.49637	431.79898	1220.5284	485.63244	382.23201	410.12564	387.02959	378.20639	388.70105	414.06467	407.46688	408.64487	399.42829	404.00089	389.84998	396.49517	124.16658	124.03967	122.63700
14.8509	14.8576	160	91	465.49417	217.85128	174.32719	161.46220	209.98359	162.44868	209.46550	431.73098	1220.3082	485.55931	382.15555	410.11364	386.99285	378.13384	388.64146	413.99092	407.42610	408.60157	399.41731	403.93801	389.79814	396.44108	124.14768	124.01781	122.62091
14.8576	14.8643	172	96	465.44559	217.82838	174.30899	161.44513	209.96190	162.43193	209.44301	431.68149	1220.1347	485.50811	382.09632	410.11734	386.97070	378.07889	388.60346	413.93472	407.40142	408.57622	399.41879	403.89123	389.76349	396.40328	124.13405	123.99976	122.60938
14.8643	14.8710	209	107	465.40717	217.81056	174.29421	161.43080	209.94505	162.41894	209.42458	431.64100	1219.9839	485.46758	382.04547	410.12868	386.95565	378.03250	388.57595	413.88708	407.38458	408.55960	399.42632	403.85228	389.73719	396.37340	124.12298	123.98357	122.60007
14.8710	14.8777	186	88	465.36640	217.79159	174.27924	161.41708	209.92629	162.40451	209.40733	431.59981	1219.8458	485.42629	381.98863	410.13782	386.94056	377.98627	388.54343	413.84203	407.36928	408.54156	399.43896	403.81388	389.70972	396.34403	124.11092	123.96711	122.59139
14.8777	14.8844	217	98	465.32507	217.77234	174.26422	161.40350	209.90707	162.38972	209.39036	431.55844	1219.7107	485.38482	381.93034	410.14644	386.92546	377.94006	388.50971	413.79760	407.35436	408.52319	399.45283	403.77559	389.68197	396.31477	124.09861	123.95058	122.58287
14.8844	14.8911	254	96	465.28622	217.75448	174.24906	161.38942	209.89094	162.37604	209.37184	431.51389	1219.5645	485.34413	381.86358	410.16003	386.91106	377.89479	388.47981	413.74934	407.33858	408.50694	399.46723	403.73682	389.65532	396.28585	124.08809	123.93478	122.57360
14.8911	14.8978	261	102	465.24812	217.73692	174.23424	161.37562	209.87503	162.36268	209.35364	431.47017	1219.4210	485.30417	381.79794	410.17409	386.89727	377.85005	388.45067	413.70175	407.32338	408.49141	399.48189	403.69869	389.62936	396.25766	124.07783	123.91913	122.56442
14.8978	14.9045	257	101	465.21734	217.72208	174.22363	161.36554	209.85962	162.35243	209.34062	431.43888	1219.3183	485.27243	381.75228	410.19004	386.89025	377.81098	388.42790	413.66506	407.31576	408.48298	399.49914	403.66853	389.61079	396.23807	124.06921	123.90472	122.55699
14.9045	14.9112	257	113	465.19576	217.71173	174.21622	161.35846	209.84920	162.34527	209.33147	431.41560	1219.2327	485.25038	381.71552	410.21564	386.89110	377.78040	388.41257	413.63609	407.31743	408.48242	399.52558	403.64690	389.59988	396.22584	124.06279	123.89340	122.55144
14.9112	14.9179	259	108	465.20877	217.71833	174.22081	161.36270	209.85754	162.34972	209.33691	431.42243	1219.2113	485.26480	381.71224	410.27750	386.92152	377.78178	388.42526	413.63610	407.35404	408.51139	399.58655	403.65732	389.61776	396.24123	124.06464	123.89377	122.55297
14.9179	14.9246	303	91	465.22060	217.72408	174.22542	161.36669	209.86391	162.35371	209.34215	431.42766	1219.1861	485.27779	381.71201	410.33863	386.95096	377.78211	388.43717	413.63482	407.38942	408.53939	399.64674	403.66547	389.63602	396.25600	124.06661	123.89331	122.55316
14.9246	14.9313	289	112	465.23020	217.72821	174.23009	161.37022	209.86653	162.35683	209.34699	431.42983	1219.1536	485.28807	381.71758	410.39839	386.97855	377.78044	388.44759	413.63107	407.42249	408.56557	399.70545	403.66931	389.65504	396.26958	124.06881	123.89127	122.55077
14.9313	14.9380	338	101	465.23951	217.73255	174.23416	161.37371	209.87047	162.36032	209.35158	431.43279	1219.1301	485.29831	381.72406	410.45915	387.00556	377.77654	388.45715	413.62672	407.45589	408.59116	399.76343	403.67408	389.67483	396.28248	124.07084	123.88964	122.54931
14.9380	14.9447	315	111	465.24852	217.73710	174.23758	161.37718	209.87582	162.36422	209.35591	431.43661	1219.1164	485.30852	381.73154	410.52099	387.03193	377.77020	388.46577	413.62172	407.48965	408.61611	399.82063	403.67987	389.69547	396.29461	124.07268	123.88847	122.54886
14.9447	14.9514	395	121	465.25688	217.74118	174.24053	161.38006	209.87918	162.36698	209.35970	431.43874	1219.0839	485.31753	381.73829	410.57779	387.05703	377.76754	388.47523	413.61756	407.51865	408.64123	399.87289	403.68616	389.71832	396.30595	124.07295	123.88618	122.54537
14.9514	14.9581	447	118	465.26484	217.74495	174.24319	161.38257	209.88128	162.36902	209.36314	431.43981	1219.0396	485.32580	381.74459	410.63141	387.08132	377.76721	388.48522	413.61391	407.54464	408.66646	399.92205	403.69275	389.74256	396.31680	124.07224	123.88320	122.53998
14.9581	14.9648	592	112	465.27194	217.74853	174.24694	161.38565	209.88496	162.37233	209.36674	431.44157	1218.9975	485.33371	381.75171	410.68587	387.10711	377.76355	388.49295	413.60932	407.57156	408.69099	399.97610	403.69627	389.76766	396.32815	124.07220	123.88179	122.53076
14.9648	14.9715	696	102	465.27874	217.75204	174.25107	161.38890	209.88917	162.37606	209.37039	431.44356	1218.9560	485.34151	381.75912	410.74061	387.13340	377.75877	388.49991	413.60441	407.59879	408.71528	400.03178	403.69874	389.79306	396.33967	124.07239	123.88091	122.52026
14.9715	14.9782	995	130	465.30569	217.76526	174.25981	161.39792	209.90106	162.38445	209.38267	431.45938	1218.9386	485.36996	381.78081	410.81396	387.17619	377.76529	388.52582	413.61687	407.64205	408.75763	400.10254	403.72046	389.83218	396.36695	124.07491	123.88540	122.52190
14.9782	14.9849	1353	151	465.33536	217.77979	174.26925	161.40775	209.91401	162.39353	209.39612	431.47711	1218.9244	485.40123	381.80447	410.88985	387.22124	377.77352	388.55428	413.63167	407.68753	408.80244	400.17544	403.74478	389.87317	396.39636	124.07777	123.89059	122.52515
14.9849	14.9916	1955	153	465.36559	217.79514	174.28315	161.41968	209.92834	162.40630	209.40997	431.49836	1218.9157	485.43476	381.83174	410.96758	387.26857	377.79381	388.58267	413.64683	407.73642	408.84910	400.25484	403.76956	389.91517	396.42680	124.08183	123.89503	122.52682
14.9916	14.9983	2518	165	465.39627	217.81053	174.29653	161.43144	209.94279	162.41865	209.42400	431.51894	1218.9123	485.46849	381.85886	411.04522	387.31566	377.81379	388.61093	413.66183	407.78519	408.89577	400.33343	403.79423	389.95674	396.45704	124.08591	123.89963	122.52925
14.9983	15.0050	3351	181	465.42942	217.82619	174.30693	161.44216	209.95797	162.42860	209.43903	431.53568	1218.9391	485.50337	381.88513	411.12228	387.36143	377.83204	388.63851	413.67589	407.83339	408.94250	400.40741	403.81829	389.99581	396.48615	124.09003	123.90514	122.53605
15.0050	15.0117	3860	206	465.46191	217.84128	174.31825	161.45299	209.97319	162.43913	209.45395	431.55238	1218.9649	485.53742	381.91133	411.19874	387.40740	377.84826	388.66732	413.68988	407.88128	408.98914	400.48047	403.84310	390.03521	396.51396	124.09413	123.91066	122.54163
15.0117	15.0184	4123	214	465.49273	217.85492	174.33185	161.46412	209.98851	162.45110	209.46858	431.56900	1218.9882	485.56933	381.93738	411.27366	387.45384	377.85938	388.69919	413.70371	407.92842	409.03559	400.55121	403.86982	390.07542	396.53851	124.09817	123.91619	122.54417
15.0184	15.0251	3836	207	465.52437	217.86980	174.34444	161.47510	210.00297	162.46268	209.48314	431.58881	1219.0292	485.60294	381.96346	411.35284	387.50091	377.87156	388.72884	413.71732	407.97607	409.08188	400.62275	403.89583	390.11498	396.55981	124.10237	123.92170	122.54891
15.0251	15.0318	3123	197	465.55718	217.88640	174.35561	161.48586	210.01624	162.47371	209.49761	431.61307	1219.0949	485.63890	381.98958	411.43793	387.54887	377.88521	388.75541	413.73063	408.02444	409.12794	400.69541	403.92087	390.15366	396.57658	124.10681	123.92716	122.55672
15.0318	15.0385	2635	181	465.58845	217.90141	174.36733	161.49681	210.03088	162.48469	209.51192	431.63747	1219.1662	485.67211	382.01559	411.51823	387.59711	377.90066	388.78364	413.74325	408.06819	409.17469	400.77358	403.94553	390.19093	396.58945	124.11030	123.93251	122.56191
15.0385	15.0452	2008	152	465.61846	217.91514	174.37950	161.50790	210.04665	162.49562	209.52610	431.66199	1219.2421	485.70309	382.04151	411.59466	387.64557	377.91757	388.81321	413.75530	408.10820	409.22197	400.85619	403.96989	390.22707	396.59918	124.11303	123.93776	122.56498
15.0452	15.0519	1564	141	465.64911	217.93071	174.39123	161.51887	210.05989	162.50734	209.53969	431.68796	1219.3250	485.73723	382.06848	411.67289	387.69282	377.93359	388.84151	413.76475	408.14154	409.26781	400.92930	403.99609	390.26388	396.59983	124.11774	123.94312	122.57079
15.0519	15.0586	1245	151	465.68005	217.94712	174.40275	161.52979	210.07199	162.51941	209.55301	431.71459	1219.4112	485.77281	382.09593	411.75194	387.73952	377.94921	388.86922	413.77301	408.17187	409.31301	400.99810	404.02312	390.30100	396.59634	124.12335	123.94853	122.57786
15.0586	15.0653	1023	127	465.72660	217.96900	174.42080	161.54652	210.09503	162.53536	209.57521	431.75672	1219.5395	485.82256	382.13483	411.84422	387.80178	377.97644	388.91137	413.79523	408.21412	409.37326	401.09178	404.06298	390.35185	396.60796	124.13259	123.95703	122.58923
15.0653	15.0720	848	124	465.77655	217.99206	174.44028	161.56452	210.12044	162.55216	209.59933	431.80222	1219.6771	485.87540	382.17621	411.93939	387.86744	378.00620	388.95665	413.82049	408.25897	409.43679	401.19087	404.10563	390.40569	396.62286	124.14262	123.96620	122.60154
15.0720	15.0787	780	118	465.83465	218.02037	174.46177	161.58451	210.14476	162.57340	209.62432	431.85542	1219.8338	485.93766	382.22490	412.04261	387.93940	378.03675	389.00815	413.84560	408.30386	409.50743	401.29010	404.15413	390.46478	396.65053	124.15416	123.97879	122.61307
15.0787	15.0854	751	101	465.89316	218.04876	174.48339	161.60469	210.16942	162.59474	209.64958	431.90876	1219.9911	486.00011	382.27388	412.14619	388.01177	378.06793	389.05977	413.86980	408.34849	409.57835	401.38903	404.20300	390.52402	396.67921	124.16576	123.99152	122.62478
15.0854	15.0921	623	115	465.95203	218.07549	174.50539	161.62579	210.19814	162.61487	209.67712	431.96000	1220.1461	486.06006	382.32238	412.24949	388.08517	378.10519	389.10964	413.88493	408.39050	409.64865	401.48465	404.25273	390.58217	396.71214	124.17723	124.00405	122.63869
15.0921	15.0988	560	106	466.01017	218.10257	174.52724	161.64627	210.22581	162.63506	209.70422	432.01170	1220.2992	486.12033	382.37088	412.35271	388.15829	378.14119	389.15989	413.90203	408.43395	409.71912	401.58035	404.30202	390.64037	396.74603	124.18846	124.01641	122.65267
15.0988	15.1055	470	113	466.06582	218.13093	174.54859	161.66463	210.24991	162.65546	209.72980	432.06501	1220.4458	486.18168	382.41938	412.45570	388.23050	378.17288	389.21146	413.92593	408.48241	409.79014	401.67636	404.34975	390.69872	396.78327	124.19886	124.02820	122.66683
15.1055	15.1122	366	100	466.12244	218.15851	174.57055	161.68433	210.27522	162.67589	209.75557	432.11785	1220.5955	486.24275	382.46794	412.55942	388.30417	378.20410	389.26217	413.95427	408.53236	409.86125	401.77368	404.39788	390.75674	396.82063	124.21039	124.03991	122.68070
15.1122	15.1189	334	108	466.18079	218.18472	174.59361	161.70644	210.30268	162.69638	209.78172	432.16984	1220.7507	486.30331	382.51656	412.66440	388.38044	378.23449	389.31130	413.99054	408.58497	409.93249	401.87335	404.44673	390.81418	396.85817	124.22392	124.05147	122.69403
15.1189	15.1256	285	104	466.23778	218.21179	174.61527	161.72666	210.32985	162.71661	209.80826	432.22237	1220.9052	486.36401	382.56438	412.76805	388.45823	378.26631	389.36283	414.02888	408.63725	410.00274	401.97637	404.49494	390.87149	396.89625	124.23729	124.06319	122.70765
15.1256	15.1323	254	106	466.29336	218.23975	174.63551	161.74496	210.35672	162.73656	209.83521	432.27545	1221.0591	486.42485	382.61140	412.87034	388.53758	378.29960	389.41682	414.06936	408.68921	410.07199	402.08284	404.54248	390.92868	396.93489	124.25048	124.07508	122.72158
15.1323	15.1390	235	94	466.34998	218.26649	174.65759	161.76567	210.38180	162.75684	209.86058	432.32793	1221.2150	486.48576	382.65870	412.97511	388.62357	378.33119	389.46696	414.11609	408.74484	410.14222	402.18554	404.58998	390.98508	396.97450	124.26261	124.08547	122.73511
15.1390	15.1457	256	90	466.40723	218.29251	174.68078	161.78781	210.40583	162.77731	209.88501	432.38003	1221.3722	486.54670	382.70617	413.08135	388.71349	378.36177	389.51480	414.16652	408.80265	410.21301	402.28599	404.63746	391.04100	397.01469	124.27410	124.09497	122.74840
15.1457	15.1524	272	129	466.47519	218.32626	174.70563	161.81061	210.43843	162.80183	209.91713	432.44400	1221.5516	486.61985	382.76363	413.19592	388.81012	378.39198	389.57539	414.22890	408.86776	410.29377	402.39300	404.69679	391.10717	397.06410	124.28865	124.10873	122.76486
15.1524	15.1591	311	108	466.54651	218.36244	174.73101	161.83363	210.47372	162.82763	209.95166	432.51167	1221.7381	486.69683	382.82422	413.31311	388.90886	378.42207	389.63998	414.29502	408.93515	410.37765	402.50209	404.75985	391.17655	397.11640	124.30416	124.12384	122.78231
15.1591	15.1658	347	101	466.62543	218.39848	174.76257	161.86292	210.50744	162.85500	209.98670	432.58692	1221.9508	486.77969	382.89084	413.43926	389.00087	378.44746	389.70775	414.36688	409.01106	410.46768	402.62326	404.82904	391.25231	397.17811	124.32219	124.14046	122.80313
15.1658	15.1725	444	105	466.70516	218.43461	174.79479	161.89283	210.54114	162.88260	210.02188	432.66303	1222.1666	486.86331	382.95818	413.56650	389.09180	378.47281	389.77600	414.43939	409.08802	410.55843	402.74580	404.89891	391.32879	397.24089	124.34050	124.15719	122.82426
15.1725	15.1792	451	117	466.78239	218.47423	174.82482	161.91954	210.58031	162.91158	210.05933	432.73886	1222.3850	486.94969	383.02611	413.69529	389.17331	378.51402	389.84755	414.51148	409.16688	410.64927	402.86732	404.96776	391.40476	397.30287	124.35860	124.17180	122.84304
15.1792	15.1859	533	113	466.86001	218.51333	174.85481	161.94651	210.61874	162.94037	210.09659	432.81451	1222.6026	487.03547	383.09373	413.82292	389.25460	378.55823	389.91860	414.58385	409.24612	410.74034	402.98917	405.03657	391.48041	397.36467	124.37664	124.18616	122.86225
15.1859	15.1926	579	127	466.93961	218.54977	174.88467	161.97480	210.65335	162.96821	210.13289	432.88923	1222.8159	487.11824	383.15974	413.94463	389.33469	378.61757	389.98711	414.65759	409.32727	410.83254	403.11265	405.10521	391.55444	397.42550	124.39442	124.19922	122.88365
15.1926	15.1993	587	108	467.01637	218.58550	174.91353	162.00208	210.68746	162.99512	210.16767	432.96152	1223.0213	487.19854	383.22362	414.06742	389.41223	378.67607	390.05382	414.72836	409.40525	410.92161	403.23187	405.17094	391.62625	397.48468	124.41148	124.21138	122.90348
15.1993	15.2060	627	94	467.08645	218.61955	174.94005	162.02694	210.72038	163.01991	210.19889	433.02810	1223.2080	487.27304	383.28252	414.19275	389.48378	378.73258	390.11633	414.79214	409.47579	411.00335	403.34114	405.22988	391.69285	397.54001	124.42685	124.22144	122.91965
15.2060	15.2127	598	111	467.16455	218.65781	174.96970	162.05481	210.75647	163.04801	210.23474	433.10320	1223.4187	487.35724	383.34939	414.32183	389.56329	378.79771	390.18491	414.86406	409.55504	411.09395	403.46317	405.29836	391.76637	397.60200	124.44444	124.23519	122.93906
15.2127	15.2194	651	110	467.25312	218.70156	175.00342	162.08658	210.79667	163.08044	210.27661	433.18944	1223.6608	487.45408	383.42668	414.45579	389.65318	378.87407	390.26141	414.94660	409.64565	411.19614	403.60186	405.37932	391.84891	397.67268	124.46494	124.25376	122.96272
15.2194	15.2261	659	97	467.34405	218.74491	175.03829	162.11819	210.83791	163.11268	210.31827	433.27616	1223.9071	487.55049	383.50429	414.59151	389.74359	378.95080	390.34108	415.03018	409.73774	411.29854	403.74036	405.45918	391.93193	397.74553	124.48600	124.27285	122.98642
15.2261	15.2328	782	131	467.43679	218.78797	175.07405	162.14968	210.87995	163.14476	210.35977	433.36324	1224.1567	487.64659	383.58215	414.72859	389.83441	379.02781	390.42317	415.11455	409.83098	411.40112	403.87874	405.53821	392.01533	397.82003	124.50749	124.29233	123.01014
15.2328	15.2395	827	122	467.52082	218.82900	175.10686	162.18010	210.91943	163.17572	210.39945	433.44562	1224.3942	487.73956	383.65453	414.86733	389.92091	379.09877	390.49895	415.19430	409.92319	411.50066	404.01427	405.61204	392.09378	397.89048	124.52749	124.31193	123.03181
15.2395	15.2462	1102	149	467.60115	218.86918	175.13842	162.21008	210.95782	163.20620	210.43837	433.52601	1224.6267	487.83120	383.72459	415.00678	390.00558	379.16717	390.57206	415.27208	410.01498	411.59891	404.14860	405.68366	392.17013	397.95922	124.54686	124.33159	123.05262
15.2462	15.2529	1322	127	467.68481	218.90940	175.17096	162.23893	210.99649	163.23565	210.47606	433.60638	1224.8540	487.92054	383.79599	415.14879	390.09022	379.23881	390.64715	415.34830	410.10944	411.69540	404.28805	405.75648	392.24418	398.02862	124.56521	124.35208	123.07569
15.2529	15.2596	1512	134	467.76912	218.94964	175.20369	162.26755	211.03521	163.26489	210.51351	433.68674	1225.0803	488.00942	383.86765	415.29131	390.17484	379.31108	390.72262	415.42421	410.20442	411.79154	404.42850	405.82953	392.31778	398.09814	124.58336	124.37274	123.09919
15.2596	15.2663	1659	132	467.85139	218.98927	175.23494	162.29725	211.07258	163.29511	210.55233	433.76622	1225.3024	488.09939	383.93844	415.43051	390.25932	379.38153	390.79549	415.50145	410.29567	411.88838	404.55717	405.90231	392.39147	398.16548	124.60146	124.39500	123.11853
15.2663	15.2730	1527	143	467.92415	219.02451	175.26263	162.32365	211.10590	163.32198	210.58681	433.83693	1225.5004	488.17939	384.00155	415.56137	390.33592	379.44413	390.86048	415.57044	410.37880	411.97698	404.67795	405.96694	392.45686	398.22503	124.61692	124.41491	123.13569
15.2730	15.2797	1318	131	467.91637	219.02244	175.26037	162.32164	211.10502	163.32010	210.58400	433.83292	1225.4935	488.17404	383.99933	415.62197	390.34525	379.44013	390.85891	415.56864	410.39358	411.99506	404.73435	405.96209	392.45133	398.21865	124.60980	124.41428	123.13539
15.2797	15.2864	1078	149	467.82037	218.97936	175.22541	162.28921	211.06360	163.28762	210.54178	433.74795	1225.2572	488.07739	383.92476	415.60522	390.28156	379.36545	390.78422	415.48883	410.33129	411.93595	404.71175	405.88169	392.37232	398.13724	124.57897	124.39035	123.11140
15.2864	15.2931	854	121	467.44390	218.80591	175.08644	162.16010	210.89326	163.15788	210.37426	433.40563	1224.2917	487.69053	383.62023	415.34261	389.98573	379.06604	390.47709	415.16108	410.02399	411.63148	404.43798	405.56110	392.05970	397.81730	124.47274	124.29238	123.01209
15.2931	15.2998	653	120	467.06892	218.63273	174.94728	162.03143	210.72445	163.02867	210.20709	433.06350	1223.3287	487.30475	383.31686	415.08065	389.69025	378.76744	390.16942	414.83375	409.71530	411.32816	404.16616	405.23937	391.74650	397.49821	124.36654	124.19456	122.91337
15.2998	15.3065	557	138	466.69640	218.45995	174.80779	161.90349	210.55819	162.90034	210.04051	432.72167	1222.3699	486.92072	383.01541	414.81974	389.39531	378.47012	389.86080	414.50709	409.40425	411.02676	403.89756	404.91568	391.43228	397.18048	124.26037	124.09698	122.81561
15.3065	15.3132	404	114	466.32360	218.28721	174.66847	161.77472	210.39109	162.77075	209.87352	432.37987	1221.4083	486.53517	382.71354	414.56110	389.10060	378.17201	389.55467	414.18106	409.09230	410.72460	403.62825	404.59373	391.12221	396.86263	124.15488	123.99901	122.71795
15.3132	15.3199	353	110	465.95048	218.11446	174.52930	161.64513	210.22315	162.63994	209.70613	432.03804	1220.4440	486.14810	382.41124	414.30462	388.80607	377.87310	389.25092	413.85559	408.77943	410.42168	403.35823	404.27345	390.81612	396.54462	124.05004	123.90064	122.62037
15.3199	15.3266	333	108	465.57573	217.94133	174.39168	161.51713	210.05557	162.51151	209.53949	431.69589	1219.4779	485.76257	382.11012	414.04092	388.51159	377.57516	388.94488	413.52871	408.46863	410.11980	403.08492	403.95233	390.51502	396.22672	123.94510	123.80302	122.52270
15.3266	15.3333	302	84	465.20010	217.76798	174.25493	161.39002	209.88820	162.38442	209.37327	431.35359	1218.5109	485.37794	381.80969	413.77321	388.21716	377.27780	388.63758	413.20106	408.15900	409.81852	402.80981	403.63078	390.21672	395.90891	123.84011	123.70581	122.42498
15.3333	15.3400	310	91	464.82851	217.59521	174.11539	161.26147	209.72243	162.25511	209.20707	431.01246	1217.5531	484.99215	381.50803	413.51955	387.92326	376.98146	388.32679	412.87577	407.85252	409.51844	402.53535	403.30943	389.92079	395.59255	123.73751	123.60856	122.32773
15.3400	15.3467	283	102	464.45808	217.42259	173.97504	161.13250	209.55711	162.12516	209.04086	430.67165	1216.5980	484.60602	381.20600	413.26993	387.62950	376.68540	388.01498	412.55115	407.54694	409.21869	402.26107	402.98812	389.62552	395.27659	123.63559	123.51128	122.23061
15.3467	15.3534	253	104	464.08039	217.24831	173.83740	161.00347	209.38798	161.99595	208.87407	430.32994	1215.6345	484.21989	380.90363	413.01107	387.33507	376.38530	387.70309	412.22516	407.23656	408.91728	401.99259	402.66844	389.33043	394.95899	123.53491	123.41307	122.13363
15.3534	15.3601	253	101	463.70220	217.07401	173.69993	160.87451	209.21865	161.86687	208.70719	429.98816	1214.6706	483.83391	380.60131	412.75137	387.04058	376.08506	387.39096	411.89904	406.92582	408.61585	401.72463	402.34887	389.03536	394.64133	123.43432	123.31482	122.03661
15.3601	15.3668	269	109	463.32841	216.90273	173.56013	160.74697	209.05287	161.73900	208.53987	429.64675	1213.7165	483.45098	380.30074	412.49316	386.74638	375.79034	387.07392	411.57295	406.61720	408.31727	401.45580	402.02838	388.74055	394.32549	123.33288	123.21765	121.93832
15.3668	15.3735	247	84	462.95798	216.73256	173.42211	160.62024	208.88859	161.61193	208.37458	429.30897	1212.7704	483.07117	380.00290	412.23641	386.45537	375.49802	386.76058	411.25042	406.31225	408.02191	401.18961	401.71082	388.44887	394.01271	123.23282	123.12149	121.84135
15.3735	15.3802	290	91	462.60290	216.56750	173.29217	160.49720	208.73120	161.48858	208.21860	428.98775	1211.8609	482.70560	379.71748	411.98634	386.17900	375.21661	386.46419	410.94412	406.02404	407.74122	400.93543	401.40662	388.17145	393.71390	123.13905	123.02990	121.75040
15.3802	15.3869	252	95	462.24808	216.40389	173.16231	160.37566	208.57334	161.36633	208.06215	428.66713	1210.9525	482.34260	379.43362	411.74040	385.90325	374.93641	386.16919	410.63820	405.73700	407.46177	400.68255	401.10420	387.89490	393.41538	123.04564	122.93843	121.65909
15.3869	15.3936	217	97	461.89364	216.24335	173.03258	160.25735	208.41441	161.24644	207.90458	428.34764	1210.0457	481.98506	379.15304	411.50342	385.62874	374.65873	385.87713	410.33297	405.45240	407.18488	400.43238	400.80554	387.62011	393.11736	122.95301	122.84713	121.56696
15.3936	15.4003	200	105	461.53872	216.08236	172.90225	160.13692	208.25818	161.12574	207.74834	428.02827	1209.1462	481.62565	378.87069	411.26667	385.35448	374.38055	385.58570	410.02859	405.16756	406.90920	400.18206	400.50563	387.34492	392.82032	122.86070	122.75582	121.47617
15.4003	15.4070	179	86	461.18308	215.92076	172.77112	160.01385	208.10523	161.00399	207.59368	427.70894	1208.2552	481.26381	378.58604	411.03013	385.08044	374.10166	385.29495	409.72514	404.88235	406.63491	399.93146	400.20410	387.06914	392.52439	122.76874	122.66447	121.38700
15.4070	15.4137	167	81	460.82731	215.75879	172.64114	159.89300	207.94741	160.88323	207.43819	427.38896	1207.3587	480.90298	378.30439	410.79357	384.80658	373.82511	385.00331	409.42125	404.59754	406.36245	399.68012	399.90340	386.79430	392.22942	122.67711	122.57335	121.29619
15.4137	15.4204	220	81	460.47140	215.59654	172.51195	159.77374	207.78609	160.76317	207.28208	427.06848	1206.4580	480.54283	378.02488	410.55698	384.53281	373.55022	384.71098	409.11700	404.31299	406.09127	399.42821	399.60326	386.52011	391.93510	122.58570	122.48239	121.20417
15.4204	15.4271	242	88	460.11002	215.43156	172.37976	159.65183	207.62805	160.64056	207.12276	426.74324	1205.5483	480.17577	377.73830	410.31297	384.25354	373.26595	384.41442	408.80788	404.02137	405.81920	399.17127	399.29739	386.23996	391.63589	122.49361	122.39035	121.11207
15.4271	15.4338	241	103	459.74649	215.26551	172.24639	159.52887	207.47131	160.51694	206.96217	426.41614	1204.6350	479.80599	377.44895	410.06603	383.97210	372.97798	384.11620	408.49687	403.72697	405.54681	398.91235	398.98926	385.95748	391.33476	122.40124	122.29789	121.01992
15.4338	15.4405	329	103	459.37863	215.10470	172.11697	159.40773	207.31388	160.39672	206.80760	426.10110	1203.7435	479.44849	377.17048	409.83228	383.70174	372.70488	383.83026	408.19622	403.44163	405.28847	398.66974	398.68715	385.68600	391.04362	122.31074	122.20706	120.92986
15.4405	15.4472	337	100	459.01001	214.94479	171.98825	159.28690	207.15633	160.27708	206.65408	425.78816	1202.8559	479.09314	376.89391	409.60082	383.43332	372.43436	383.54646	407.89738	403.15786	405.03258	398.42998	398.38608	385.41644	390.75423	122.22055	122.11650	120.84016
15.4472	15.4539	393	128	458.66078	214.79244	171.86724	159.17382	207.00837	160.16329	206.50647	425.48605	1202.0031	478.75176	376.62779	409.37929	383.17462	372.17203	383.26707	407.60901	402.88630	404.78081	398.19847	398.09326	385.15709	390.47686	122.13414	122.03102	120.75454
15.4539	15.4606	382	111	458.31037	214.63994	171.74572	159.06053	206.86029	160.04927	206.35883	425.18400	1201.1521	478.41053	376.36155	409.15973	382.91611	371.90969	382.98897	407.32089	402.61457	404.52731	397.96662	397.79987	384.89784	390.19962	122.04784	121.94554	120.66894
15.4606	15.4673	360	96	457.94918	214.48550	171.61952	158.94480	206.71024	159.93298	206.21026	424.88126	1200.3105	478.06889	376.09337	408.95364	382.65797	371.64635	382.71984	407.03350	402.34027	404.26062	397.73134	397.50144	384.63823	389.92201	121.96194	121.85947	120.58296
15.4673	15.4740	323	105	457.59325	214.33118	171.49476	158.82934	206.56021	159.81730	206.06161	424.57868	1199.4668	477.72726	375.82581	408.74356	382.39991	371.38342	382.44778	406.74633	402.06646	403.99259	397.49533	397.20217	384.37895	389.64448	121.87580	121.77352	120.49720
15.4740	15.4807	338	96	457.25278	214.17718	171.37426	158.71463	206.41025	159.70338	205.91275	424.27652	1198.6166	477.38561	375.56005	408.52172	382.14207	371.12166	382.16706	406.45976	401.79406	403.72058	397.25711	396.90035	384.12066	389.36714	121.78898	121.68791	120.41206
15.4807	15.4874	270	108	456.91662	214.02352	171.25155	158.60028	206.26101	159.58912	205.76453	423.97494	1197.7683	477.04457	375.29424	408.30560	381.88440	370.86048	381.88988	406.17331	401.52163	403.44861	397.02300	396.59914	383.86229	389.08941	121.70329	121.60205	120.32655
15.4874	15.4941	268	97	456.58720	213.87034	171.12536	158.48648	206.11284	159.47429	205.61732	423.67420	1196.9226	476.70443	375.02828	408.09846	381.62691	370.60014	381.61821	405.88700	401.24905	403.17666	396.79530	396.29882	383.60373	388.81100	121.61937	121.51577	120.24045
15.4941	15.5008	280	94	456.26314	213.71558	171.00024	158.37044	205.96214	159.35882	205.46724	423.37055	1196.0713	476.35961	374.76011	407.88686	381.36774	370.33719	381.34311	405.59834	400.97421	402.90291	396.56512	395.99998	383.34374	388.53185	121.53388	121.42959	120.15440
15.5008	15.5075	232	81	455.94402	213.55937	170.87612	158.25235	205.80914	159.24279	205.31454	423.06426	1195.2148	476.01056	374.48995	407.67120	381.10704	370.07188	381.06491	405.30756	400.69732	402.62755	396.33270	395.70255	383.08247	388.25206	121.44695	121.34350	120.06840
15.5075	15.5142	199	96	455.62875	213.40611	170.75313	158.13749	205.65639	159.12713	205.16508	422.76107	1194.3646	475.66890	374.22304	407.46114	380.84924	369.80927	380.78915	405.02143	400.42486	402.35516	396.09760	395.40821	382.82377	387.97628	121.36045	121.25777	119.98308
15.5142	15.5209	210	95	455.31548	213.25437	170.63071	158.02432	205.50375	159.01166	205.01730	422.45949	1193.5177	475.33107	373.95781	407.25398	380.59293	369.54807	380.51465	404.73772	400.15470	402.08430	395.86109	395.11547	382.56640	387.70256	121.27418	121.17223	119.89812
15.5209	15.5276	204	99	455.19182	213.18875	170.57685	157.97492	205.43533	158.96330	204.95418	422.33386	1193.1752	475.18476	373.84781	407.22155	380.49427	369.44254	380.39762	404.61908	400.05054	401.97993	395.79661	394.98670	382.46763	387.58682	121.23905	121.13680	119.86253
15.5276	15.5343	145	91	455.11828	213.14589	170.54112	157.94238	205.38917	158.93269	204.91345	422.25474	1192.9660	475.08908	373.77887	407.23531	380.43728	369.37817	380.32223	404.54408	399.99028	401.91958	395.77762	394.90129	382.41080	387.51286	121.21745	121.11463	119.84000
15.5343	15.5410	159	98	455.30723	213.22632	170.60390	157.99945	205.46677	158.99100	204.98961	422.41925	1193.4376	475.27038	373.92632	407.49373	380.60063	369.52341	380.46864	404.70597	400.16539	402.09223	395.98619	395.04712	382.57554	387.66389	121.26599	121.16348	119.88745
15.5410	15.5477	126	87	455.51808	213.31706	170.67492	158.06383	205.55347	159.05689	205.07540	422.60398	1193.9654	475.47464	374.09170	407.77199	380.78230	369.68621	380.63327	404.88744	400.36013	402.28423	396.21381	395.21215	382.75869	387.83373	121.32040	121.21814	119.94066
15.5477	15.5544	137	81	455.74053	213.41383	170.75077	158.12970	205.62641	159.12958	205.16431	422.79824	1194.5167	475.68920	374.26475	408.05216	380.97292	369.85962	380.80330	405.07670	400.56531	402.48552	396.45258	395.38616	382.95057	388.01447	121.37814	121.27422	119.99608
15.5544	15.5611	103	88	455.96270	213.51002	170.82626	158.19653	205.70094	159.20168	205.25324	422.99214	1195.0705	475.90338	374.43796	408.33883	381.16344	370.03334	380.97387	405.26593	400.77089	402.68671	396.69139	395.56036	383.14237	388.19485	121.43556	121.33052	120.05172
15.5611	15.5678	132	101	456.18388	213.60394	170.90023	158.26736	205.78211	159.27144	205.34226	423.18469	1195.6352	476.11611	374.61197	408.65264	381.35368	370.20841	381.14677	405.45518	400.97826	402.88767	396.93049	395.73549	383.33395	388.37391	121.49171	121.38782	120.10830
15.5678	15.5745	148	96	456.40501	213.69850	170.97359	158.33167	205.86242	159.34156	205.43205	423.37737	1196.1951	476.32892	374.78524	408.95668	381.54383	370.38242	381.31852	405.64399	401.18418	403.08852	397.17040	395.90998	383.52538	388.55313	121.54818	121.44521	120.16408
15.5745	15.5812	150	96	456.62594	213.79434	171.04567	158.38260	205.94091	159.41240	205.52334	423.57022	1196.7451	476.54184	374.95692	409.24059	381.73376	370.55421	381.48787	405.83185	401.38706	403.28911	397.41194	396.08313	383.71646	388.73265	121.60526	121.50274	120.21825
15.5812	15.5879	200	96	456.84657	213.88792	171.11794	158.43925	206.02741	159.48115	205.60982	423.76192	1197.2990	476.75377	375.12877	409.53697	381.92336	370.72604	381.65654	406.01997	401.59143	403.48936	397.65347	396.25611	383.90744	388.91211	121.66222	121.55965	120.27344
15.5879	15.5946	215	77	457.06687	213.97888	171.19045	158.50256	206.12321	159.54751	205.69072	423.95230	1197.8577	476.96457	375.30085	409.84789	382.11263	370.89794	381.82444	406.20843	401.79758	403.68925	397.89501	396.42893	384.09833	389.09153	121.71906	121.61584	120.32985
15.5946	15.6013	286	87	457.28714	214.07077	171.25322	158.57256	206.22071	159.61527	205.77145	424.14095	1198.4096	477.17309	375.47191	410.16786	382.30184	371.06990	381.99502	406.39752	402.00191	403.88912	398.13257	396.60192	384.28892	389.27069	121.77540	121.67234	120.38497
15.6013	15.6080	375	109	457.50736	214.16328	171.30939	158.64708	206.31935	159.68397	205.85206	424.32840	1198.9568	477.38004	375.64227	410.49393	382.49099	371.24188	382.16740	406.58703	402.20501	404.08895	398.36742	396.77499	384.47927	389.44965	121.83141	121.72905	120.43921
15.6080	15.6147	441	107	457.72774	214.25217	171.37226	158.72278	206.41873	159.74565	205.92943	424.51734	1199.4981	477.58629	375.81424	410.81936	382.67994	371.41447	382.33228	406.77422	402.40863	404.28850	398.60838	396.94714	384.66965	389.62771	121.88797	121.78447	120.49479
15.6147	15.6214	594	104	457.94820	214.33973	171.43759	158.79890	206.51838	159.80476	206.00561	424.70682	1200.0371	477.79228	375.98680	411.14459	382.86881	371.58728	382.49442	406.96057	402.61246	404.48794	398.85159	397.11894	384.86004	389.80544	121.94475	121.83942	120.55086
15.6214	15.6281	640	104	458.18069	214.43489	171.51508	158.87966	206.62310	159.86645	206.09369	424.90710	1200.6293	478.00897	376.16702	411.52833	383.06879	371.76774	382.67345	407.15900	402.82487	404.69907	399.10073	397.30453	385.06119	389.99548	122.00486	121.90057	120.60884
15.6281	15.6348	570	95	458.41502	214.53122	171.59445	158.96112	206.72860	159.92853	206.18360	425.10902	1201.2297	478.22728	376.34840	411.92111	383.27047	371.94937	382.85509	407.35926	403.03858	404.91199	399.35074	397.49223	385.26397	390.18741	122.06548	121.96268	120.66710
15.6348	15.6415	548	104	458.66424	214.62412	171.68758	159.04776	206.84155	160.00490	206.29254	425.32365	1201.8500	478.45113	376.54460	412.34018	383.48097	372.14615	383.03459	407.57362	403.26124	405.13440	399.61552	397.68905	385.47915	390.39052	122.12964	122.02649	120.73006
15.6415	15.6482	424	99	458.91346	214.71805	171.78075	159.13436	206.95438	160.08231	206.40195	425.53841	1202.4722	478.67406	376.74059	412.75719	383.69158	372.34281	383.21401	407.78795	403.48424	405.35687	399.88024	397.88603	385.69436	390.59352	122.19378	122.09023	120.79297
15.6482	15.6549	350	87	459.16283	214.81870	171.87419	159.22068	207.06648	160.16651	206.51447	425.75425	1203.1072	478.89133	376.93540	413.16124	383.90307	372.53884	383.39316	408.00230	403.70966	405.57994	400.14486	398.08426	385.90990	390.79594	122.25785	122.15362	120.85557
15.6549	15.6616	245	90	459.41402	214.92256	171.96839	159.30777	207.17954	160.25209	206.62757	425.97075	1203.7436	479.10993	377.13130	413.55026	384.11586	372.73527	383.57270	408.21754	403.93643	405.80444	400.40998	398.28417	386.12685	390.99989	122.32251	122.21770	120.91883
15.6616	15.6683	223	88	459.67028	215.03515	172.06467	159.39695	207.29524	160.34147	206.74230	426.18914	1204.3843	479.33225	377.33025	413.89850	384.33224	372.93281	383.75342	408.43533	404.16692	406.03293	400.67658	398.48874	386.34771	391.20808	122.38883	122.28366	120.98392
15.6683	15.6750	168	91	459.92639	215.14977	172.16056	159.48572	207.41094	160.43081	206.85736	426.40622	1205.0207	479.55915	377.52975	414.21828	384.54857	373.13268	383.92983	408.65350	404.39706	406.26138	400.94484	398.69161	386.56845	391.41659	122.45498	122.34942	121.04851
15.6750	15.6817	163	82	460.18225	215.26736	172.25585	159.57385	207.52659	160.52008	206.97290	426.62133	1205.6507	479.79279	377.73002	414.49578	384.76481	373.33598	384.09984	408.87221	404.62662	406.48972	401.21550	398.89191	386.78896	391.62552	122.52085	122.41487	121.11232
15.6817	15.6884	144	104	460.43741	215.38574	172.35159	159.66252	207.64155	160.60909	207.08768	426.83714	1206.2904	480.04014	377.92840	414.76097	384.98089	373.53615	384.27027	409.09058	404.85571	406.71782	401.48444	399.09269	387.00934	391.83314	122.58665	122.48086	121.17664
15.6884	15.6951	108	97	460.69200	215.50480	172.44774	159.75166	207.75593	160.69791	207.20183	427.05358	1206.9387	480.29934	378.12518	415.01556	385.19687	373.73364	384.44109	409.30866	405.08443	406.94574	401.75195	399.29392	387.22963	392.03964	122.65240	122.54733	121.24139
15.6951	15.7018	104	104	460.94660	215.62446	172.54289	159.83967	207.87153	160.78687	207.31664	427.27128	1207.5780	480.56297	378.32339	415.26737	385.41270	373.93280	384.61126	409.52638	405.31381	407.17348	402.02354	399.49494	387.44972	392.24693	122.71823	122.61292	121.30524
15.7018	15.7085	97	95	461.20119	215.74440	172.63754	159.92713	207.98773	160.87591	207.43175	427.48958	1208.2129	480.82875	378.52229	415.51779	385.62845	374.13275	384.78111	409.74391	405.54351	407.40110	402.29712	399.69584	387.66970	392.45458	122.78409	122.67809	121.36863
15.7085	15.7152	69	97	461.45843	215.86448	172.73413	160.01666	208.10283	160.96563	207.54728	427.71427	1208.8643	481.09684	378.72002	415.77021	385.84618	374.33451	384.97690	409.96322	405.77519	407.63088	402.56977	399.89715	387.89147	392.66455	122.85051	122.74415	121.43451
15.7152	15.7219	83	95	461.71631	215.98460	172.83119	160.10669	208.21768	161.05552	207.66290	427.94050	1209.5197	481.36550	378.91747	416.02312	386.06439	374.53672	385.17894	410.18297	406.00735	407.86119	402.84220	400.09856	388.11369	392.87507	122.91706	122.81044	121.50099
15.7219	15.7286	83	106	461.99420	216.11510	172.93529	160.20314	208.34420	161.15244	207.78795	428.18964	1210.2070	481.65527	379.13500	416.29434	386.29994	374.75465	385.40116	410.42133	406.25530	408.10914	403.13593	400.31886	388.35281	393.10167	122.98897	122.88230	121.56953
15.7286	15.7353	98	84	462.27154	216.24534	173.03915	160.29935	208.47047	161.24921	207.91278	428.43876	1210.8919	481.94451	379.35193	416.56515	386.53556	374.97203	385.62344	410.65920	406.50292	408.35664	403.42901	400.53869	388.59152	393.32780	123.06074	122.95398	121.63796
15.7353	15.7420	93	86	462.52650	216.36432	173.13459	160.38761	208.58448	161.33866	208.02763	428.66966	1211.5220	482.21073	379.54581	416.81658	386.75868	375.17026	385.83076	410.87658	406.73426	408.58487	403.69762	400.73778	388.81199	393.53554	123.12660	123.01902	121.70349
15.7420	15.7487	102	80	462.77791	216.48178	173.22878	160.47474	208.69725	161.42674	208.14080	428.89713	1212.1462	482.47308	379.73729	417.06450	386.97969	375.36589	386.03488	411.09061	406.96171	408.80979	403.96513	400.93322	389.02933	393.74028	123.19147	123.08329	121.76734
15.7487	15.7554	129	83	463.01568	216.59334	173.31820	160.55752	208.80518	161.50955	208.24750	429.11144	1212.7473	482.72059	379.91951	417.29889	387.19257	375.55148	386.22675	411.29178	407.17430	409.02202	404.22833	401.11471	389.23460	393.93349	123.25257	123.14461	121.82477
15.7554	15.7621	167	89	463.25287	216.70466	173.40723	160.63984	208.91245	161.59225	208.35421	429.32590	1213.3421	482.96793	380.10095	417.53336	387.40512	375.73690	386.41863	411.49261	407.38715	409.23409	404.48798	401.29458	389.43976	394.12645	123.31346	123.20559	121.88359
15.7621	15.7688	174	96	463.48902	216.81552	173.49554	160.72127	209.01848	161.67474	208.46099	429.54070	1213.9248	483.21499	380.28093	417.76802	387.61710	375.92202	386.61058	411.69283	407.60056	409.44592	404.74091	401.47137	389.64475	394.31896	123.37399	123.26594	121.94508
15.7688	15.7755	177	83	463.65634	216.89374	173.55830	160.77938	209.09385	161.73315	208.53625	429.69084	1214.3265	483.38984	380.40222	417.93994	387.76993	376.04921	386.74461	411.83194	407.75266	409.59651	404.93688	401.58606	389.79145	394.45196	123.41599	123.30814	121.98672
15.7755	15.7822	161	89	463.74819	216.93617	173.59304	160.81190	209.13560	161.76515	208.57696	429.77006	1214.5299	483.48548	380.45913	418.04303	387.85787	376.11288	386.81512	411.90403	407.83752	409.67995	405.07036	401.63266	389.87422	394.51972	123.43766	123.33044	122.00659
15.7822	15.7889	170	111	463.65407	216.89226	173.55777	160.77902	209.09335	161.73230	208.53468	429.67765	1214.2499	483.38768	380.36533	417.97884	387.78875	376.02832	386.73105	411.81084	407.76094	409.59925	405.03949	401.51874	389.80057	394.42934	123.41083	123.30293	121.97875
15.7889	15.7956	159	100	463.44181	216.79349	173.47803	160.70458	208.99772	161.65825	208.43968	429.47619	1213.6628	483.16698	380.17578	417.80836	387.61983	375.84958	386.54877	411.61264	407.58179	409.41427	404.90422	401.30284	389.62755	394.23850	123.35318	123.24376	121.92061
15.7956	15.8023	225	86	463.21426	216.68705	173.39306	160.62599	208.89513	161.57894	208.33709	429.26069	1213.0255	482.92966	379.96351	417.62424	387.43837	375.65743	386.35322	411.40010	407.38541	409.21593	404.75238	401.07088	389.44185	394.03473	123.29107	123.18054	121.85794
15.8023	15.8090	281	102	462.98153	216.57801	173.30632	160.54600	208.79018	161.49787	208.23194	429.04044	1212.3712	482.68672	379.74353	417.43549	387.25266	375.46074	386.15317	411.18271	407.18319	409.01307	404.59492	400.83349	389.25184	393.82658	123.22745	123.11596	121.79373
15.8090	15.8157	323	116	462.75695	216.47328	173.22217	160.46790	208.68916	161.41974	208.13123	428.82919	1211.7568	482.45327	379.53846	417.25398	387.07317	375.26927	385.96065	410.97174	406.99176	408.81745	404.45009	400.60782	389.06868	393.62681	123.16421	123.05360	121.73127
15.8157	15.8224	418	90	462.53368	216.36923	173.13845	160.39014	208.58877	161.34208	208.03120	428.61931	1211.1480	482.22130	379.33532	417.07364	386.89468	375.07871	385.76930	410.76189	406.80195	408.62300	404.30727	400.38400	388.88662	393.42834	123.10111	122.99159	121.66912
15.8224	15.8291	448	93	462.32620	216.27208	173.06126	160.31877	208.49536	161.26982	207.93776	428.42145	1210.5594	482.00484	379.12597	416.90793	386.72915	374.90355	385.59000	410.57011	406.62403	408.44281	404.18601	400.17907	388.71864	393.24261	123.04460	122.93360	121.61217
15.8291	15.8358	515	106	462.11995	216.17556	172.98443	160.24767	208.40241	161.19794	207.84486	428.22453	1209.9720	481.78971	378.91882	416.74320	386.56417	374.72884	385.41133	410.37875	406.44746	408.26328	404.06512	399.97668	388.55149	393.05781	122.98814	122.87604	121.55522
15.8358	15.8425	503	102	461.92053	216.08262	172.90950	160.17814	208.31210	161.12824	207.75497	428.03280	1209.3908	481.58193	378.72411	416.58396	386.40215	374.55650	385.23614	410.18966	406.27850	408.08741	403.94622	399.78863	388.38904	392.87821	122.93197	122.82095	121.49813
15.8425	15.8492	475	103	461.72082	215.98946	172.83469	160.10871	208.22184	161.05857	207.66519	427.84130	1208.8179	481.37393	378.53256	416.42649	386.23984	374.38488	385.05958	410.00098	406.11036	407.91106	403.83021	399.60230	388.22697	392.69808	122.87620	122.76548	121.44151
15.8492	15.8559	455	94	461.52043	215.89577	172.76018	160.03954	208.13173	160.98900	207.57568	427.65048	1208.2664	481.16542	378.34908	416.27356	386.07686	374.21514	384.87958	409.81341	405.94438	407.73355	403.72155	399.42041	388.06594	392.51670	122.82148	122.70905	121.38607
15.8559	15.8626	451	96	461.32059	215.80234	172.68554	159.97044	208.04165	160.91940	207.48586	427.45981	1207.7017	480.95713	378.16992	416.12075	385.91395	374.04508	384.70056	409.62529	405.77950	407.55621	403.61182	399.23950	387.90546	392.33658	122.76600	122.65315	121.32895
15.8626	15.8693	513	103	461.12150	215.70926	172.61070	159.90144	207.95158	160.84975	207.39560	427.26931	1207.1184	480.74911	377.99676	415.96807	385.75111	373.87453	384.52288	409.43636	405.61614	407.37908	403.50057	399.05991	387.74572	392.15820	122.70947	122.59795	121.26944
15.8693	15.8760	535	90	460.92177	215.61611	172.53623	159.83235	207.86159	160.78027	207.30594	427.07940	1206.5512	480.54127	377.82868	415.81544	385.58778	373.70297	384.34460	409.24792	405.45208	407.20204	403.38791	398.88021	387.58787	391.97809	122.65392	122.54206	121.21099
15.8760	15.8827	427	101	460.72155	215.52292	172.46207	159.76320	207.77168	160.71096	207.21678	426.89001	1205.9974	480.33364	377.66479	415.66290	385.42408	373.53064	384.16587	409.05994	405.28750	407.02510	403.27414	398.70047	387.43158	391.79663	122.59919	122.48562	121.15341
15.8827	15.8894	425	101	460.52256	215.42989	172.38742	159.69400	207.68230	160.64161	207.12707	426.69870	1205.4148	480.12648	377.50199	415.51050	385.26040	373.35987	383.98704	408.87070	405.12342	406.84833	403.16914	398.52089	387.27800	391.61705	122.54435	122.42937	121.09511
15.8894	15.8961	305	94	460.32409	215.33692	172.31253	159.62476	207.59315	160.57225	207.03709	426.50649	1204.8188	479.91951	377.33966	415.35814	385.09672	373.18978	383.80814	408.68084	404.95956	406.67162	403.06815	398.34136	387.12564	391.43831	122.48944	122.37320	121.03646
15.8961	15.9028	226	91	460.11529	215.23919	172.23494	159.55269	207.49964	160.49955	206.94348	426.30664	1204.1812	479.70242	377.16897	415.19738	384.92605	373.01270	383.62251	408.48345	404.78848	406.48679	402.95301	398.15431	386.96755	391.24953	122.43014	122.31486	120.97288
15.9028	15.9095	211	85	459.90424	215.14044	172.15676	159.48003	207.40518	160.42614	206.84909	426.10514	1203.5346	479.48313	376.99647	415.03479	384.75386	372.83412	383.43543	408.28443	404.61584	406.30021	402.83479	397.96565	386.80822	391.05858	122.36987	122.25605	120.90822
15.9095	15.9162	178	96	459.69269	215.04197	172.07705	159.40632	207.30972	160.35256	206.75371	425.90010	1202.9273	479.26306	376.82367	414.87082	384.58010	372.65163	383.24612	408.08463	404.43866	406.11248	402.71735	397.77494	386.64867	390.86828	122.31226	122.19699	120.84316
15.9162	15.9229	166	78	459.48218	214.94397	171.99777	159.33298	207.21471	160.27930	206.65881	425.69599	1202.3189	479.04402	376.65164	414.70751	384.40722	372.46976	383.05775	407.88551	404.26213	405.92568	402.60061	397.58512	386.48981	390.67895	122.25495	122.13815	120.77875
15.9229	15.9296	142	87	459.28296	214.85071	171.92385	159.26414	207.12484	160.20951	206.56959	425.50360	1201.6812	478.83624	376.48793	414.55178	384.24444	372.29652	382.88040	407.69386	404.09483	405.74917	402.49089	397.40557	386.33840	390.49949	122.19956	122.08167	120.72130
15.9296	15.9363	120	100	459.08577	214.75847	171.85054	159.19599	207.03595	160.14070	206.48129	425.31161	1201.0621	478.63079	376.32628	414.39732	384.08321	372.12576	382.70463	407.50419	403.92914	405.57451	402.38319	397.22776	386.18832	390.32135	122.14452	122.02598	120.66389
15.9363	15.9430	133	84	458.89558	214.66973	171.77928	159.13018	206.95039	160.07531	206.39611	425.12094	1200.5071	478.43332	376.17175	414.24721	383.92732	371.96352	382.53425	407.32132	403.76895	405.40616	402.28245	397.05591	386.04282	390.14772	122.09064	121.97299	120.60658
15.9430	15.9497	175	91	458.70582	214.58094	171.70811	159.06445	206.86483	160.00935	206.31084	424.93066	1199.9358	478.23567	376.01674	414.09727	383.77151	371.80092	382.36385	407.13776	403.60781	405.23786	402.18038	396.88472	385.89702	389.97367	122.03735	121.91978	120.55029
15.9497	15.9564	182	90	458.51688	214.49207	171.63711	158.99884	206.77925	159.94239	206.22542	424.74110	1199.3354	478.03774	375.86091	413.94769	383.61589	371.63772	382.19346	406.95300	403.44504	405.06970	402.07597	396.71475	385.75072	389.79890	121.98515	121.86621	120.49587
15.9564	15.9631	213	106	458.32698	214.40381	171.56627	158.93314	206.69363	159.87626	206.14005	424.55384	1198.7624	477.84040	375.70587	413.79810	383.46045	371.47287	382.02346	406.76937	403.28263	404.90169	401.97505	396.54383	385.60385	389.62226	121.93185	121.81289	120.43941
15.9631	15.9698	263	120	458.13607	214.31617	171.49559	158.86735	206.60796	159.81096	206.05471	424.36894	1198.2175	477.64365	375.55163	413.64849	383.30518	371.30630	381.85384	406.58686	403.12057	404.73380	401.87773	396.37190	385.45637	389.44366	121.87740	121.75984	120.38083
15.9698	15.9765	407	106	457.94690	214.22785	171.42469	158.80190	206.52292	159.74478	205.96977	424.18715	1197.7003	477.44656	375.39729	413.49930	383.15039	371.13945	381.68353	406.40379	402.95988	404.56629	401.78215	396.20153	385.30951	389.26531	121.82462	121.70590	120.32587
15.9765	15.9832	522	111	457.75881	214.13916	171.35367	158.73669	206.43828	159.67810	205.88509	424.00727	1197.1998	477.24932	375.24293	413.35040	382.99591	370.97246	381.51284	406.22042	402.80004	404.39904	401.68764	396.03212	385.16306	389.08715	121.77283	121.65144	120.27309
15.9832	15.9899	682	106	457.57034	214.05139	171.28367	158.67151	206.35333	159.61300	205.80052	423.82874	1196.7104	477.05380	375.08893	413.20196	382.84172	370.81010	381.34628	406.03360	402.64212	404.23256	401.59203	395.86225	385.01549	388.90475	121.72007	121.59874	120.21770
15.9899	15.9966	955	134	457.38173	213.96391	171.21399	158.60633	206.26827	159.54840	205.71598	423.65061	1196.2244	476.85881	374.93502	413.05365	382.68760	370.64918	381.18099	405.84566	402.48480	404.06630	401.49605	395.69221	384.86755	388.72099	121.66699	121.54658	120.16149
15.9966	16.0033	1185	123	457.19451	213.87618	171.14397	158.54148	206.18402	159.48283	205.63170	423.47420	1195.7340	476.66366	374.78187	412.90596	382.53388	370.48561	381.01037	405.65826	402.32391	403.90029	401.40247	395.52412	384.72080	388.53368	121.61412	121.49311	120.10680
16.0033	16.0100	1222	109	457.00750	213.78845	171.07391	158.47667	206.09990	159.41718	205.54749	423.29805	1195.2431	476.46856	374.62884	412.75838	382.38027	370.32173	380.83935	405.47081	402.16283	403.73441	401.30932	395.35628	384.57423	388.34611	121.56134	121.43950	120.05233
16.0100	16.0167	1242	121	456.81968	213.70074	171.00344	158.41138	206.01593	159.35205	205.46370	423.12223	1194.7531	476.27342	374.47538	412.61055	382.22686	370.15659	380.67435	405.27755	402.00788	403.57012	401.22009	395.18720	384.42783	388.16188	121.51024	121.38600	119.99886
16.0167	16.0234	1187	128	456.64772	213.62049	170.93897	158.35170	205.93884	159.29241	205.38678	422.96102	1194.3049	476.09480	374.33498	412.47695	382.08673	370.00364	380.52159	405.09705	401.86641	403.42074	401.14405	395.03182	384.29453	387.99127	121.46277	121.33678	119.94910
16.0234	16.0301	982	123	456.55651	213.57823	170.90507	158.32067	205.89677	159.26072	205.34488	422.87424	1194.0702	476.00040	374.26114	412.41589	382.01435	369.91271	380.43110	404.98150	401.79361	403.34740	401.13539	394.94619	384.22799	387.88997	121.43373	121.30935	119.91824
16.0301	16.0368	829	96	456.64406	213.61927	170.93773	158.35116	205.93571	159.29113	205.38370	422.95257	1194.3005	476.09173	374.33312	412.51603	382.09102	369.96742	380.49037	405.02173	401.87763	403.43301	401.28541	395.01478	384.31138	387.94100	121.45277	121.32905	119.93486
16.0368	16.0435	798	107	457.15359	213.85693	171.12748	158.52692	206.16591	159.46814	205.61310	423.42070	1195.6285	476.62154	374.74930	412.99669	382.51955	370.36599	380.90320	405.42976	402.33183	403.89382	401.80989	395.44745	384.74869	388.35165	121.58534	121.45999	120.06360
16.0435	16.0502	758	111	457.73229	214.12615	171.34270	158.72640	206.42525	159.66885	205.87197	423.95149	1197.1345	477.22162	375.22086	413.53829	383.00411	370.81676	381.37121	405.90478	402.84527	404.41354	402.38992	395.93792	385.24310	388.81986	121.73518	121.60876	120.20909
16.0502	16.0569	904	128	458.40246	214.43709	171.59159	158.95724	206.72316	159.90089	206.16982	424.56513	1198.8759	477.91462	375.76568	414.16049	383.56274	371.33654	381.91220	406.46835	403.43705	405.01117	403.04348	396.50481	385.81306	389.36414	121.90786	121.78110	120.37673
16.0569	16.0636	986	119	459.08150	214.75018	171.84190	159.18921	207.02496	160.13414	206.47056	425.18312	1200.6256	478.61175	376.31416	414.78650	384.12586	371.86053	382.45722	407.04263	404.03344	405.61158	403.70824	397.07499	386.38647	389.91289	122.08272	121.95456	120.54618
16.0636	16.0703	1206	109	459.76782	215.06514	172.09350	159.42222	207.32997	160.36849	206.77373	425.80488	1202.3830	479.31254	376.86583	415.41590	384.69282	372.38814	383.00573	407.62553	404.63378	406.21457	404.38206	397.64812	386.96295	390.46545	122.25939	122.12900	120.71713
16.0703	16.0770	1329	121	460.45890	215.38060	172.34601	159.65606	207.63354	160.60400	207.07730	426.42838	1204.1459	480.01602	377.41920	416.04773	385.26241	372.91654	383.55638	408.21434	405.23451	406.81800	405.05838	398.22481	387.54143	391.01877	122.43697	122.30348	120.88967
16.0770	16.0837	1376	126	461.15180	215.69619	172.59883	159.89019	207.93641	160.83993	207.38095	427.05244	1205.9108	480.72046	377.97313	416.68042	385.83295	373.44514	384.10780	408.80551	405.83523	407.42146	405.73556	398.80285	388.12060	391.57226	122.61490	122.47791	121.06283
16.0837	16.0904	1192	127	461.84022	216.01235	172.85192	160.12477	208.24188	161.07546	207.68448	427.67657	1207.6813	481.42449	378.52744	417.31272	386.40352	373.96790	384.65804	409.40278	406.43492	408.02437	406.42321	399.37944	388.69864	392.12743	122.78957	122.65242	121.23279
16.0904	16.0971	1012	107	462.52728	216.32842	173.10489	160.35927	208.54766	161.31075	207.98778	428.30027	1209.4517	482.12795	379.08145	417.94451	386.97372	374.48913	385.20768	410.00086	407.03399	408.62676	407.11247	399.95534	389.27606	392.68255	122.96347	122.82682	121.40201
16.0971	16.1038	910	121	463.20719	216.64260	173.35556	160.59149	208.84981	161.54522	208.28980	428.92225	1211.2077	482.82875	379.63171	418.57353	387.54034	374.99726	385.75678	410.59735	407.63085	409.22657	407.80093	400.53053	389.85182	393.23569	123.13987	122.99915	121.57424
16.1038	16.1105	663	105	463.88707	216.95668	173.60631	160.82376	209.15192	161.77962	208.59177	429.54414	1212.9637	483.52932	380.18191	419.20242	388.10662	375.50383	386.30544	411.19368	408.22777	409.82605	408.48940	401.10548	390.42744	393.78862	123.31600	123.17135	121.74626
16.1105	16.1172	607	133	464.56488	217.26858	173.85701	161.05575	209.45312	162.01241	208.89186	430.16228	1214.7139	484.22478	380.72957	419.82754	388.66792	375.99767	386.84733	411.78566	408.82246	410.42001	409.17439	401.67545	390.99917	394.33729	123.48806	123.34205	121.91461
16.1172	16.1239	503	106	465.24527	217.58254	174.10863	161.28874	209.75605	162.24656	209.19370	430.78416	1216.4725	484.92440	381.28027	420.45607	389.23223	376.50142	387.39333	412.38091	409.42008	411.01760	409.86699	402.24839	391.57421	394.88860	123.66185	123.51323	122.08395
16.1239	16.1306	396	113	465.93431	217.90328	174.36336	161.52510	210.06472	162.48518	209.50132	431.41843	1218.2596	485.63778	381.84104	421.09593	389.80659	377.03728	387.95286	412.98704	410.02751	411.62721	410.58447	402.83123	392.16022	395.44869	123.84125	123.68609	122.25657
16.1306	16.1373	355	102	466.89630	218.35038	174.72063	161.85614	210.49563	162.81842	209.93091	432.30371	1220.7569	486.63411	382.62460	421.98272	390.60814	377.79898	388.73739	413.83437	410.87415	412.47647	411.53814	403.64981	392.97466	396.24034	124.09210	123.93038	122.50114
16.1373	16.1440	306	106	468.32084	219.01160	175.25168	162.34761	211.13371	163.31200	210.56720	433.61436	1224.4578	488.10994	383.78575	423.28799	391.79471	378.94336	389.90322	415.09043	412.12620	413.73188	412.89225	404.86784	394.17622	397.42438	124.46403	124.29569	122.86764
16.1440	16.1507	306	92	469.68310	219.64577	175.75937	162.81767	211.74555	163.78483	211.17684	434.86986	1228.0056	489.52351	384.89716	424.54110	392.93115	380.03989	391.01977	416.29283	413.32840	414.93436	414.20922	406.03354	395.32698	398.55700	124.82021	124.64635	123.21636
16.1507	16.1574	317	97	470.98542	220.25392	176.24457	163.26713	212.33217	164.23771	211.76086	436.07231	1231.4062	490.87721	385.96072	425.74408	394.01936	381.09041	392.08890	417.44360	414.48267	416.08594	415.49071	407.14888	396.42887	399.64013	125.16126	124.98293	123.54794
16.1574	16.1641	336	120	471.95324	220.70384	176.60481	163.60202	212.76919	164.57346	212.19358	436.96414	1233.9248	491.88047	386.75020	426.64411	394.82688	381.87036	392.87840	418.29774	415.34255	416.94140	416.50498	407.97427	397.24942	400.43750	125.41352	125.23006	123.79381
16.1641	16.1708	312	97	472.73241	221.06453	176.89459	163.87229	213.12182	164.84315	212.54096	437.68080	1235.9460	492.68609	387.38511	427.37327	395.47611	382.49771	393.51020	418.98458	416.03638	417.62985	417.36833	408.63614	397.91130	401.07373	125.61571	125.42675	123.99133
16.1708	16.1775	337	89	473.40393	221.37649	177.14377	164.10579	213.43084	165.07553	212.84049	438.29798	1237.6920	493.38095	387.93132	428.00509	396.03564	383.03734	394.05256	419.57555	416.63305	418.22256	418.12877	409.20466	398.48170	401.62116	125.78707	125.59885	124.15948
16.1775	16.1842	298	91	474.04451	221.67444	177.38129	164.32872	213.72735	165.29718	213.12627	438.88656	1239.3590	494.04397	388.45203	428.60895	396.56939	383.55174	394.56920	420.13897	417.20178	418.78775	418.85971	409.74634	399.02581	402.14308	125.94957	125.76389	124.31918
16.1842	16.1909	235	91	474.49198	221.88099	177.54723	164.48818	213.93343	165.45139	213.32541	439.29744	1240.5147	494.50435	388.81502	429.03862	396.94146	383.90991	394.92456	420.53188	417.60172	419.18299	419.44573	410.12055	399.40820	402.49708	126.06435	125.87814	124.42765
16.1909	16.1976	192	82	474.92875	222.08249	177.70937	164.64425	214.13433	165.60188	213.51996	439.69853	1241.6419	494.95352	389.16934	429.45871	397.30460	384.25950	395.27108	420.91538	417.99238	419.56885	420.02392	410.48551	399.78168	402.84176	126.17655	125.98967	124.53310
16.1976	16.2043	156	85	475.55529	222.37413	177.94535	164.86543	214.42004	165.81878	213.80406	440.27553	1243.2688	495.60206	389.67982	430.05132	397.82718	384.76405	395.77777	421.46730	418.55053	420.12249	420.74869	411.01551	400.31488	403.35104	126.33684	126.15303	124.68470
16.2043	16.2110	113	115	476.18900	222.66916	178.18443	165.08904	214.70873	166.03863	214.09163	440.85944	1244.9163	496.25847	390.19636	430.65069	398.35606	385.27455	396.29041	422.02590	419.11500	420.68283	421.47961	411.55220	400.85450	403.86613	126.49875	126.31868	124.83914
16.2110	16.2177	128	96	476.85800	222.98081	178.43867	165.32461	215.01208	166.27282	214.39619	441.47720	1246.6644	496.95343	390.74255	431.28331	398.91574	385.81415	396.83216	422.61718	419.71061	421.27595	422.24136	412.12156	401.42555	404.40980	126.66865	126.49545	125.00723
16.2177	16.2244	146	94	477.47707	223.26961	178.67429	165.54211	215.29340	166.49034	214.67925	442.04814	1248.2778	497.59546	391.24755	431.87024	399.43306	386.31268	397.33210	423.16361	420.26081	421.82424	422.92737	412.64685	401.95393	404.91115	126.82568	126.65890	125.16020
16.2244	16.2311	139	79	477.98694	223.50845	178.86922	165.72008	215.52651	166.67140	214.91528	442.51667	1249.5964	498.12170	391.66241	432.35726	399.85774	386.72136	397.74058	423.61194	420.71166	422.27445	423.44742	413.07570	402.38897	405.31992	126.95454	126.79322	125.28004
16.2311	16.2378	157	83	478.37155	223.69055	179.01811	165.85476	215.70228	166.81048	215.09362	442.87116	1250.5951	498.51951	391.97540	432.73542	400.17871	387.03059	398.04580	423.95053	421.05132	422.61542	423.83758	413.39831	402.71963	405.62206	127.04666	126.89470	125.36994
16.2378	16.2445	159	75	478.60028	223.80205	179.10973	165.93555	215.80670	166.89729	215.20018	443.08374	1251.1955	498.75749	392.16161	432.97806	400.37062	387.21607	398.22255	424.15253	421.25262	422.82045	424.06613	413.58873	402.92037	405.79157	127.09307	126.95530	125.42257
16.2445	16.2512	176	107	478.97308	223.98036	179.25219	166.06661	215.97635	167.03087	215.37165	443.42822	1252.1639	499.14796	392.46473	433.35630	400.68174	387.51555	398.51749	424.48080	421.58019	423.15123	424.41876	413.90087	403.24095	406.08134	127.18204	127.05327	125.51196
16.2512	16.2579	171	72	479.45023	224.20706	179.43148	166.23407	216.19323	167.19832	215.59015	443.86824	1253.3988	499.64886	392.85251	433.83278	401.07919	387.89759	398.89805	424.90054	421.99922	423.57308	424.86127	414.30119	403.64833	406.45820	127.30182	127.17831	125.62798
16.2579	16.2646	230	101	480.00385	224.47127	179.64022	166.42700	216.44448	167.39418	215.84109	444.38066	1254.8391	500.23754	393.30434	434.37932	401.54295	388.34407	399.34403	425.38939	422.48763	424.06427	425.37343	414.76990	404.12234	406.90296	127.43938	127.32504	125.76605
16.2646	16.2713	191	89	480.58822	224.75055	179.86079	166.63018	216.70954	167.60146	216.10509	444.92219	1256.3618	500.86147	393.78190	434.95405	402.03335	388.81645	399.81630	425.90602	423.00391	424.58333	425.91360	415.26609	404.62313	407.37501	127.58410	127.48047	125.91297
16.2713	16.2780	225	102	481.41681	225.14427	180.17377	166.91975	217.08412	167.89292	216.48056	445.69108	1258.5279	501.74220	394.46016	435.74813	402.72652	389.48630	400.49246	426.63979	423.72863	425.31769	426.67022	415.97272	405.32900	408.05040	127.79683	127.70000	126.12487
16.2780	16.2847	207	93	482.28847	225.55817	180.50305	167.22455	217.47801	168.19923	216.87569	446.50007	1260.8076	502.66820	395.17382	436.58089	403.45545	390.19098	401.20457	427.41184	424.49010	426.09002	427.46500	416.71648	406.07103	408.76167	128.02156	127.93083	126.34824
16.2847	16.2914	198	80	483.18537	225.98193	180.84040	167.53630	217.88509	168.51414	217.28117	447.33704	1263.1513	503.61379	395.90840	437.43411	404.20804	390.91672	401.94849	428.20698	425.27619	426.88687	428.28357	417.48383	406.83609	409.49035	128.25626	128.16899	126.58176
16.2914	16.2981	204	90	483.98741	226.36100	181.14226	167.81524	218.24913	168.79600	217.64392	448.08615	1265.2462	504.46026	396.56520	438.20092	404.88104	391.56559	402.61337	428.91793	425.97852	427.59967	429.01787	418.16893	407.52110	410.13839	128.46561	128.38190	126.79029
16.2981	16.3048	222	89	484.08083	226.40649	181.17924	167.84927	218.29149	168.83100	217.68765	448.17838	1265.4836	504.56721	396.64102	438.32270	404.95924	391.64013	402.68651	428.99983	426.05477	427.68442	429.12271	418.23934	407.60790	410.18451	128.48514	128.40612	126.81173
16.3048	16.3115	231	106	484.15500	226.44348	181.20868	167.87658	218.32573	168.85883	217.72269	448.25274	1265.6729	504.65318	396.70095	438.42620	405.02169	391.69942	402.74445	429.06458	426.11401	427.75228	429.21072	418.29383	407.67862	410.21311	128.50021	128.42543	126.82833
16.3115	16.3182	220	102	484.17192	226.45517	181.21569	167.88391	218.33579	168.86535	217.73188	448.27396	1265.7195	504.67679	396.71362	438.47530	405.03727	391.71339	402.75723	429.07836	426.12272	427.76991	429.24866	418.30096	407.70148	410.18972	128.50202	128.43014	126.83051
16.3182	16.3249	209	90	484.05148	226.40246	181.17206	167.84349	218.28353	168.82499	217.67997	448.16891	1265.4073	504.55861	396.61492	438.40146	404.93903	391.61675	402.65559	428.97191	426.00695	427.66777	429.16583	418.18933	407.60992	410.05360	128.46752	128.39876	126.79694
16.3249	16.3316	210	105	483.71262	226.24736	181.04791	167.72718	218.13216	168.71007	217.53088	447.86311	1264.5244	504.21498	396.33914	438.13219	404.65979	391.34423	402.37202	428.67427	425.69327	427.37521	428.89096	417.88885	407.33646	409.73822	128.37527	128.30999	126.70651
16.3316	16.3383	189	84	483.49432	226.14803	180.96817	167.65286	218.03518	168.63634	217.43444	447.66658	1263.9554	503.99524	396.16061	437.96943	404.47907	391.16785	402.18431	428.48150	425.48362	427.18696	428.72093	417.69183	407.16255	409.52272	128.31576	128.25218	126.64700
16.3383	16.3450	222	80	483.38673	226.09992	180.92920	167.61713	217.98818	168.60043	217.38636	447.57041	1263.6746	503.88929	396.07138	437.90451	404.38883	391.07976	402.08464	428.38504	425.36951	427.09452	428.64718	417.58984	407.08009	409.39891	128.28630	128.22282	126.61587
16.3450	16.3517	192	89	483.37220	226.09645	180.92602	167.61371	217.98423	168.59784	217.38308	447.56346	1263.6440	503.88291	396.06133	437.92785	404.38054	391.07053	402.07110	428.37450	425.34070	427.08853	428.65993	417.57113	407.07950	409.36373	128.28285	128.21977	126.61052
16.3517	16.3584	177	73	483.40665	226.11648	180.94170	167.62729	218.00294	168.61277	217.40338	447.60347	1263.7450	503.92896	396.09296	437.99764	404.41539	391.10281	402.10291	428.40919	425.35679	427.12806	428.71821	417.59627	407.12200	409.37520	128.29308	128.23058	126.61873
16.3584	16.3651	152	81	483.50378	226.16542	180.98004	167.66313	218.04855	168.64835	217.44840	447.69825	1264.0014	504.03799	396.17434	438.12012	404.50039	391.18328	402.17539	428.49739	425.43423	427.22067	428.82944	417.67338	407.21479	409.44575	128.31966	128.25715	126.64200
16.3651	16.3718	123	100	483.61758	226.22205	181.02441	167.70488	218.10132	168.68942	217.49999	447.80759	1264.2990	504.16373	396.26894	438.25658	404.59871	391.27654	402.25867	428.59980	425.52799	427.32738	428.95474	417.76431	407.32093	409.53201	128.35058	128.28791	126.66928
16.3718	16.3785	94	88	483.95614	226.38465	181.15330	167.82413	218.25751	168.81095	217.65675	448.12900	1265.2015	504.52680	396.54955	438.60060	404.88733	391.55438	402.53803	428.90422	425.82617	427.63712	429.28288	418.05331	407.61952	409.81531	128.44154	128.37936	126.75767
16.3785	16.3852	88	94	484.28674	226.54370	181.27942	167.94077	218.41031	168.92991	217.81026	448.44354	1266.0848	504.88205	396.82408	438.93794	405.16975	391.82625	402.81142	429.20210	426.11874	427.94041	429.60451	418.33594	407.91194	410.09265	128.53056	128.46883	126.84414
16.3852	16.3919	77	82	484.18483	226.50233	181.24646	167.91017	218.36858	168.89838	217.76911	448.36046	1265.8409	504.79014	396.74876	438.88637	405.09474	391.75222	402.72325	429.12119	426.04437	427.86504	429.54619	418.24783	407.84446	410.00736	128.50685	128.44405	126.81684
16.3919	16.3986	91	92	484.14105	226.48868	181.23558	167.89993	218.35396	168.88785	217.75499	448.33248	1265.7539	504.76032	396.72215	438.88881	405.06956	391.72632	402.68518	429.09279	426.02342	427.84196	429.54062	418.21095	407.82691	409.97250	128.49878	128.43523	126.80557
16.3986	16.4053	77	81	484.34196	226.59173	181.31761	167.97538	218.45344	168.96572	217.85463	448.53645	1266.3277	504.99179	396.90061	439.11857	405.25407	391.90296	402.85801	429.28538	426.22730	428.03898	429.75711	418.38967	408.01950	410.14992	128.55653	128.49354	126.86177
16.4053	16.4120	78	70	484.66382	226.74995	181.44379	168.09196	218.60560	169.08416	218.00668	448.84954	1267.2078	505.34598	397.17602	439.45466	405.53694	392.17484	403.12830	429.58292	426.53561	428.33966	430.07829	418.67035	408.31162	410.42712	128.64564	128.58302	126.94807
16.4120	16.4187	69	81	485.23554	227.02214	181.66123	168.29351	218.86664	169.28644	218.26701	449.38809	1268.7209	505.95376	397.65172	440.01050	406.02303	392.64353	403.59996	430.09731	427.05971	428.85456	430.61581	419.16168	408.80937	410.91047	128.79953	128.73690	127.09656
16.4187	16.4254	72	112	485.88189	227.32859	181.90589	168.51978	219.16022	169.51455	218.56047	449.99351	1270.4219	506.63626	398.18922	440.63288	406.56972	393.17095	404.13127	430.67496	427.64856	429.43283	431.21723	419.71465	409.36776	411.45395	128.97261	128.90979	127.26464
16.4254	16.4321	77	82	486.61532	227.67502	182.18232	168.77489	219.49179	169.77279	218.89259	450.67696	1272.3423	507.40594	398.79881	441.33290	407.18714	393.76689	404.73216	431.32640	428.31294	430.08504	431.89323	420.33953	409.99691	412.06758	129.16805	129.10486	127.45556
16.4321	16.4388	84	89	487.72927	228.19640	182.59896	169.16160	219.99295	170.16150	219.39329	451.70917	1275.2513	508.56863	399.72196	442.37275	408.11962	394.66719	405.64663	432.31186	429.30696	431.06986	432.90354	421.29060	410.94333	413.00145	129.46340	129.40004	127.74463
16.4388	16.4455	82	93	489.10098	228.83627	183.11057	169.63745	220.60898	170.63857	220.00817	452.97763	1278.8301	509.99751	400.85750	443.64275	409.26551	395.77365	406.77352	433.52358	430.52424	432.27996	434.14030	422.46264	412.10465	414.15225	129.82642	129.76303	128.10016
16.4455	16.4522	89	91	490.69740	229.58053	183.70582	170.18787	221.32552	171.19310	220.72339	454.45069	1282.9840	511.65709	402.17310	445.11644	410.59688	397.05932	408.08272	434.93205	431.93844	433.68651	435.57424	423.82614	413.45273	415.49045	130.24860	130.18458	128.51437
16.4522	16.4589	82	89	492.37814	230.36397	184.33246	170.76629	222.07978	171.77670	221.47627	456.00053	1287.3538	513.40327	403.55628	446.66658	411.99786	398.41226	409.46035	436.41436	433.42655	435.16680	437.08221	425.26149	414.87090	416.89899	130.69299	130.62811	128.95060
16.4589	16.4656	68	75	494.44676	231.32833	185.10353	171.48077	223.00711	172.49607	222.40280	457.90985	1292.7436	515.55380	405.25625	448.56921	413.72397	400.08025	411.16407	438.24092	435.25863	436.98986	438.93773	427.03061	416.61661	418.63664	131.23968	131.17521	129.48773
16.4656	16.4723	67	74	496.57662	232.32125	185.89740	172.21672	223.96176	173.23687	223.35675	459.87594	1298.2945	517.76819	407.00625	450.52751	415.50142	401.79799	412.91928	440.12184	437.14503	438.86705	440.84814	428.85243	418.41404	420.42626	131.80252	131.73867	130.04079
16.4723	16.4790	74	86	498.33962	233.14260	186.55340	172.82477	224.75140	173.84939	224.14559	461.50131	1302.8791	519.59831	408.45002	452.15754	416.97072	403.21702	414.36260	441.67638	438.71212	440.41962	442.43596	430.35803	419.90187	421.90270	132.26833	132.20417	130.49852
16.4790	16.4857	94	83	500.05795	233.94299	187.19285	173.41701	225.52097	174.44608	224.91428	463.08552	1307.3472	521.38194	409.85763	453.74720	418.40278	404.60007	415.76937	443.19151	440.24002	441.93277	443.98429	431.82505	421.35207	423.34153	132.72235	132.65785	130.94436
16.4857	16.4924	68	82	501.49558	234.61164	187.72840	173.90978	226.16447	174.94317	225.55627	464.41112	1311.0835	522.87357	411.03819	455.08327	419.60098	405.75719	416.94671	444.45909	441.52166	443.19824	445.28464	433.04953	422.56592	424.54408	133.10242	133.03724	131.31539
16.4924	16.4991	70	92	502.90480	235.26716	188.25268	174.39362	226.79211	175.43105	226.18535	465.71029	1314.7469	524.33542	412.19418	456.39332	420.77524	406.89126	418.09928	445.70109	442.77792	444.43853	446.55961	434.24952	423.75575	425.72265	133.47461	133.40900	131.67940
16.4991	16.5058	63	78	504.23561	235.88645	188.74591	174.85283	227.37601	175.89346	226.77874	466.93649	1318.2092	525.71506	413.28238	457.63148	421.88338	407.96170	419.18347	446.87247	443.96405	445.60929	447.76451	435.38187	424.87924	426.83499	133.82506	133.75971	132.02404
16.5058	16.5125	73	102	505.40305	236.42858	189.17785	175.25170	227.88909	176.29745	227.29869	468.01081	1321.2458	526.92387	414.23774	458.72193	422.85483	408.89968	420.13302	447.89948	445.00667	446.63576	448.82462	436.37271	425.86515	427.80882	134.13255	134.06719	132.32546
16.5125	16.5192	65	104	506.32495	236.85474	189.51768	175.55991	228.29572	176.61363	227.70828	468.85683	1323.6424	527.87590	414.99342	459.59029	423.62082	409.63859	420.88021	448.70947	445.83355	447.44535	449.66705	437.15083	426.64424	428.57446	134.37549	134.30970	132.56194
16.5192	16.5259	60	93	507.16309	237.24220	189.82608	175.84064	228.66555	176.90220	228.07903	469.62579	1325.8221	528.74014	415.67883	460.38216	424.31690	410.30965	421.55600	449.44465	446.58724	448.18061	450.43490	437.85557	427.35313	429.26939	134.59589	134.52997	132.77685
16.5259	16.5326	62	89	507.92895	237.59626	190.10734	176.09766	229.00363	177.16695	228.41627	470.32824	1327.8145	529.52861	416.30361	461.10806	424.95267	410.92216	422.17016	450.11525	447.27778	448.85173	451.13841	438.49696	428.00145	429.90330	134.79686	134.73105	132.97314
16.5326	16.5393	57	83	508.19284	237.71489	190.19931	176.18319	229.11957	177.25423	228.52661	470.56547	1328.5094	529.79410	416.51759	461.37740	425.16833	411.12891	422.36710	450.34158	447.52577	449.07937	451.39627	438.70607	428.22658	430.11183	134.86474	134.79909	133.03752
16.5393	16.5460	55	98	508.20939	237.71751	190.19801	176.18421	229.12605	177.25406	228.52514	470.57344	1328.5649	529.80188	416.52915	461.42178	425.17699	411.13571	422.35842	450.34898	447.55569	449.08848	451.43455	438.70215	428.24319	430.11076	134.86704	134.80158	133.03690
16.5460	16.5527	56	85	507.03891	237.16356	189.74890	175.77774	228.59835	176.84072	227.98851	469.48406	1325.5321	528.56982	415.56721	460.39012	424.19247	410.18297	421.36464	449.30472	446.54018	448.04917	450.41873	437.67516	427.25947	429.10590	134.55460	134.48870	132.72647
16.5527	16.5594	58	94	505.57933	236.47405	189.19072	175.27201	227.94056	176.32674	227.32154	468.12741	1321.7471	527.03579	414.36816	459.09636	422.96607	408.99652	420.13095	448.00431	445.27003	446.75451	449.14616	436.39899	426.03211	427.85656	134.16549	134.09901	132.34060
16.5594	16.5661	69	79	502.98153	235.25132	188.21051	174.37148	226.76932	175.41029	226.14214	465.71719	1314.9583	524.31483	412.23590	456.76378	420.78833	406.88669	417.94421	445.69460	442.99370	444.45336	446.85743	434.13752	423.84512	425.64233	133.47373	133.40803	131.65562
16.5661	16.5728	54	94	500.22491	233.95416	187.17160	173.41588	225.52650	174.43835	224.89183	463.15982	1307.7535	521.42821	409.97345	454.28649	418.47775	404.64846	415.62588	443.24419	440.57701	442.01190	444.42712	431.73902	421.52429	423.29383	132.73986	132.67496	130.92907
16.5728	16.5795	64	91	496.39903	232.15595	185.73867	172.08974	223.80221	173.09673	223.16763	459.61112	1297.7668	517.42616	406.83469	450.83654	415.27241	401.54851	412.43003	439.84746	437.21585	438.62669	441.04519	428.42081	418.30288	420.04377	131.72320	131.65837	129.92366
16.5795	16.5862	67	101	492.52990	230.33745	184.28989	170.74854	222.05825	171.74079	221.42488	456.02277	1287.6615	513.37824	403.66055	447.34681	412.03077	398.41330	409.19496	436.41235	433.81661	435.20306	437.62471	425.06465	415.04509	416.75674	130.69482	130.63028	128.90693
16.5862	16.5929	68	74	488.50573	228.44627	182.78439	169.35332	220.24376	170.33372	219.61587	452.29236	1277.1291	509.16573	400.35955	443.71428	408.65899	395.15160	405.81853	432.83967	430.28086	431.64170	434.06603	421.57230	411.65687	413.33714	129.62435	129.56094	127.84959
16.5929	16.5996	78	88	484.44224	226.53752	181.26415	167.94469	218.41171	168.91441	217.78916	448.52501	1266.5015	504.91088	397.02572	440.04627	405.25482	391.85812	402.41317	429.23242	426.71077	428.04620	430.47233	418.04657	408.23544	409.88453	128.54385	128.48121	126.78205
16.5996	16.6063	57	78	480.30042	224.59369	179.71457	166.50931	216.54467	167.47065	215.92720	444.68408	1255.6840	500.57174	393.62649	436.30754	401.78608	388.50132	398.94996	425.55626	423.07225	424.38267	426.80891	414.45428	404.74786	406.36614	127.44337	127.38076	125.69418
16.6063	16.6130	77	90	476.18793	222.66657	178.17591	165.08374	214.69054	166.03677	214.07843	440.86913	1244.9375	496.26550	390.25222	432.59415	398.34154	385.16855	395.50589	421.90578	419.45896	420.74443	423.17104	410.88782	401.28466	402.87281	126.35051	126.28807	124.61373
16.6130	16.6197	84	110	472.10518	220.75667	176.64833	163.66809	212.84946	164.61288	212.24306	437.08043	1234.2625	491.99281	386.90334	428.90635	394.92150	381.86020	392.08075	418.28130	415.87120	417.13178	419.55906	407.34759	397.84616	399.40492	125.26538	125.20325	123.54078
16.6197	16.6264	108	90	468.18313	218.92204	175.18101	162.30874	211.08115	163.24559	210.47986	433.44116	1224.0028	487.89188	383.68551	425.36541	391.63619	378.68212	388.78598	414.80215	412.42416	413.66154	416.08983	403.94345	394.54375	396.07451	124.22286	124.16135	122.51032
16.6264	16.6331	89	77	464.36763	217.13734	173.75364	160.98671	209.36107	161.91582	208.76452	429.90094	1214.0185	483.90473	380.55460	421.92180	388.44020	375.59043	385.57775	411.41930	409.07043	410.28571	412.71522	400.62961	391.33154	392.83525	123.20860	123.14791	121.50803
16.6331	16.6398	99	94	460.54412	215.34978	172.32282	159.66124	207.63744	160.58271	207.04592	426.35231	1204.0179	479.91778	377.41694	418.46849	385.23772	372.49144	382.36536	408.03292	405.71111	406.90300	409.33305	397.31089	388.11155	389.58767	122.19250	122.13205	120.50309
16.6398	16.6465	80	96	456.71823	213.56143	170.89095	158.33472	205.91276	159.24859	205.32636	422.80112	1194.0126	475.93129	374.27725	415.01218	382.03331	369.39024	379.15185	404.64565	402.35020	403.51826	405.94861	393.99082	384.88918	386.33755	121.17588	121.11545	119.49735
16.6465	16.6532	75	95	453.26373	211.94599	169.59861	157.13726	204.35521	158.04400	203.77301	419.59724	1184.9660	472.33090	371.44185	411.89414	379.13934	366.58968	376.25723	401.58993	399.31439	400.46139	402.89404	390.99194	381.98038	383.40175	120.25700	120.19745	118.58993
16.6532	16.6599	101	90	449.87320	210.36036	168.33028	155.96201	202.82647	156.86172	202.24833	416.45308	1176.0852	468.79705	368.65885	408.83434	376.29885	363.84091	373.41734	398.59122	396.33468	397.46101	399.89630	388.04830	379.12557	380.52007	119.35500	119.29642	117.69939
16.6599	16.6666	96	77	447.60262	209.29945	167.48076	155.17494	201.80319	156.07052	201.22820	414.34760	1170.1499	466.43223	366.79415	406.79175	374.39617	361.99997	371.52187	396.58467	394.34433	395.45142	397.89394	386.06811	377.21493	378.58675	118.75133	118.69250	117.10100
16.6666	16.6733	92	91	445.43550	208.28670	166.66993	154.42371	200.82648	155.31524	200.25442	412.33824	1164.4835	464.17500	365.01395	404.84319	372.57985	360.24239	369.71266	394.66945	392.44457	393.53306	395.98342	384.17737	375.39141	376.74098	118.17502	118.11599	116.52976
16.6733	16.6800	103	94	443.86851	207.55333	166.08350	153.88033	200.11993	154.76831	199.54946	410.88641	1160.3774	462.54184	363.72389	403.44005	371.26448	358.96826	368.40379	393.28398	391.07021	392.14396	394.60568	382.80548	374.07323	375.40299	117.75732	117.69849	116.11599
16.6800	16.6867	106	90	442.59396	206.95714	165.60664	153.43842	199.54527	154.32368	198.97621	409.70525	1157.0357	461.21384	362.67384	402.30235	370.19399	357.93097	367.33808	392.15727	389.95434	391.01360	393.48815	381.68525	373.00185	374.31226	117.41731	117.35865	115.77885
16.6867	16.6934	120	75	442.06439	206.71043	165.40891	153.25502	199.30660	154.13963	198.73848	409.21361	1155.6411	460.66320	362.23521	401.84087	369.74729	357.49701	366.89179	391.68973	389.49696	390.54236	393.03351	381.20606	372.55917	373.85135	117.27515	117.21663	115.63691
16.6934	16.7001	128	92	441.97914	206.67088	165.37710	153.22559	199.26821	154.11011	198.70022	409.13324	1155.4077	460.57491	362.15989	401.78337	369.67169	357.42457	366.81374	391.61488	389.43046	390.46329	392.97358	381.10758	372.49037	373.76604	117.25097	117.19217	115.61043
16.7001	16.7068	151	81	442.51916	206.92284	165.57879	153.41285	199.51168	154.29804	198.94265	409.63164	1156.8085	461.13726	362.59588	402.29435	370.11833	357.86090	367.25391	392.09265	389.91403	390.93611	393.46910	381.54490	372.94771	374.20930	117.39281	117.33313	115.74644
16.7068	16.7135	164	100	443.47754	207.37112	165.93733	153.74513	199.94385	154.63235	199.37349	410.51767	1159.3013	462.13618	363.37516	403.18654	370.91549	358.63942	368.04223	392.94153	390.76655	391.77892	394.33725	382.34479	373.75828	375.00670	117.64508	117.58546	115.99327
16.7135	16.7202	205	82	444.77736	207.97963	166.42388	154.19576	200.53005	155.08611	199.95810	411.72006	1162.6854	463.49142	364.43462	404.38984	371.99873	359.69723	369.11468	394.09329	391.92019	392.92369	395.50953	383.44061	374.85715	376.09315	117.98747	117.92868	116.33057
16.7202	16.7269	248	94	446.30856	208.69584	166.99690	154.72678	201.22025	155.61990	200.64650	413.13667	1166.6763	465.08737	365.68210	405.80257	373.27487	360.94297	370.37742	395.44920	393.27760	394.27258	396.88702	384.72778	376.15041	377.37449	118.39186	118.33306	116.72598
16.7269	16.7336	336	82	447.94750	209.46220	167.61019	155.29521	201.95888	156.19096	201.38322	414.65304	1170.9499	466.79541	367.01713	407.31283	374.64083	362.27623	371.72875	396.90018	394.72992	395.71651	398.36009	386.10408	377.53419	378.74657	118.82512	118.76591	117.14845
16.7336	16.7403	501	76	449.78565	210.32177	168.29773	155.93201	202.78780	156.83214	202.20961	416.35261	1175.7434	468.71107	368.51369	409.00494	376.17440	363.76566	373.24701	398.52696	396.35779	397.33609	400.01066	387.65431	379.08622	380.28792	119.31098	119.25264	117.62641
16.7403	16.7470	635	93	451.66814	211.20209	169.00181	156.58403	203.63682	157.48892	203.05596	418.09296	1180.6526	470.67296	370.04621	410.73754	377.74529	365.28986	374.80243	400.19287	398.02474	398.99477	401.70074	389.24327	380.67570	381.86695	119.80855	119.75136	118.11671
16.7470	16.7537	976	89	454.06109	212.32138	169.89755	157.41425	204.71543	158.32315	204.13160	420.30648	1186.8954	473.16679	371.99850	412.93486	379.74213	367.22802	376.78027	402.31098	400.14181	401.10442	403.84563	391.27121	382.69529	383.87657	120.44144	120.38719	118.73636
16.7537	16.7604	1280	106	456.49954	213.46190	170.81029	158.26020	205.81459	159.17324	205.22772	422.56214	1193.2566	475.70798	373.98766	415.17350	381.77699	369.20267	378.79588	404.46923	402.29890	403.25427	406.03120	393.33805	384.75321	385.92459	121.08639	121.03520	119.36803
16.7604	16.7671	1736	99	459.16352	214.70743	171.80692	159.18320	207.01627	160.10221	206.42560	425.02652	1200.2021	478.48366	376.15643	417.61660	384.00057	371.35597	380.99934	406.82565	404.65390	405.60338	408.41927	395.59619	387.00100	388.16301	121.79104	121.74338	120.06210
16.7671	16.7738	2111	105	461.90201	215.98777	172.83149	160.13231	208.25121	161.05714	207.65681	427.55980	1207.3426	481.33709	378.38546	420.12888	386.28655	373.56983	383.26430	409.24842	407.07588	408.01827	410.87575	397.92192	389.31182	390.46417	122.51545	122.47116	120.77493
16.7738	16.7805	2555	143	464.89563	217.38730	173.95174	161.17085	209.60000	162.10094	209.00213	430.32895	1215.1508	484.45670	380.82071	422.87804	388.78617	375.99109	385.73979	411.89834	409.72723	410.65832	413.56659	400.47942	391.83841	392.98015	123.30749	123.26602	121.55190
16.7805	16.7872	2501	134	467.84970	218.76866	175.05713	162.19530	210.93165	163.13102	210.33000	433.06130	1222.8556	487.53523	383.22546	425.59199	391.25267	378.38083	388.18257	414.51296	412.34431	413.26358	416.22492	403.00793	394.33243	395.46324	124.08908	124.05015	122.31926
16.7872	16.7939	2188	127	470.72742	220.11489	176.13384	163.19258	212.23015	164.13458	211.62415	435.72263	1230.3610	490.53442	385.57109	428.23781	393.65525	380.70965	390.56220	417.05948	414.89517	415.80167	418.82016	405.47991	396.76344	397.88279	124.85052	124.81360	123.06798
16.7939	16.8006	1744	119	473.27642	221.30719	177.08766	164.07609	213.37955	165.02355	212.77034	438.07991	1237.0050	493.19122	387.64944	430.58541	395.78302	382.77113	392.66956	419.31433	417.15674	418.04951	421.12729	407.66902	398.93010	400.02371	125.52451	125.49013	123.73012
16.8006	16.8073	1311	118	475.48442	222.33981	177.91401	164.84157	214.37427	165.79366	213.76304	440.12178	1242.7555	495.49285	389.45054	432.62365	397.62571	384.55527	394.49449	421.26663	419.11821	419.99629	423.13558	409.56468	400.82259	401.87558	126.10779	126.07647	124.30243
16.8073	16.8140	943	106	477.33960	223.20751	178.60826	165.48487	215.21076	166.44058	214.59693	441.83669	1247.5843	497.42615	390.96639	434.34024	399.17308	386.05336	396.02547	422.90629	420.76854	421.63069	424.83048	411.15595	402.43393	403.42993	126.59792	126.56837	124.78304
16.8140	16.8207	744	115	478.98330	223.97635	179.22331	166.05494	215.95243	167.01365	215.33563	443.35561	1251.8608	499.13869	392.31128	435.86403	400.54346	387.38001	397.38027	424.35855	422.23238	423.07786	426.33755	412.56476	403.87680	404.80593	127.03221	127.00365	125.20867
16.8207	16.8274	501	99	480.31591	224.59948	179.72174	166.51667	216.55314	167.47821	215.93480	444.58776	1255.3163	500.52740	393.40325	437.10409	401.65381	388.45480	398.47815	425.53518	423.42058	424.25063	427.56745	413.70658	405.11606	405.91749	127.38398	127.35699	125.55296
16.8274	16.8341	348	115	481.54844	225.17573	180.18264	166.94355	217.10850	167.90785	216.48907	445.72764	1258.5076	501.81192	394.41383	438.25284	402.68051	389.44856	399.49337	426.62314	424.52010	425.33511	428.70813	414.76249	406.28954	406.94399	127.70921	127.68396	125.87108
16.8341	16.8408	260	90	482.29117	225.52285	180.46074	167.20154	217.44344	168.16684	216.82272	446.41129	1260.4167	502.58554	395.02200	438.95175	403.29745	390.04705	400.10058	427.27583	425.18405	425.98652	429.40737	415.39577	407.08221	407.55649	127.90405	127.88039	126.06036
16.8408	16.8475	218	107	482.95939	225.83513	180.71100	167.43378	217.74484	168.39986	217.12285	447.02566	1262.1310	503.28148	395.56901	439.58239	403.85206	390.58539	400.64581	427.86241	425.78191	426.57209	430.03950	415.96480	407.81742	408.10600	128.07913	128.05698	126.23009
16.8475	16.8542	181	85	483.06842	225.88664	180.75153	167.47104	217.79417	168.43784	217.17225	447.12354	1262.3898	503.39561	395.65897	439.70543	403.93932	390.67150	400.72868	427.95563	425.88859	426.66453	430.16922	416.05306	408.13469	408.18234	128.10795	128.08527	126.25458
16.8542	16.8609	184	79	483.00342	225.85660	180.72705	167.44816	217.76498	168.41519	217.14328	447.06026	1262.1896	503.32833	395.60637	439.67014	403.88116	390.61648	400.66715	427.89424	425.84171	426.60327	430.14392	415.99138	408.29951	408.11209	128.09074	128.06744	126.23355
16.8609	16.8676	146	103	482.03623	225.40384	180.36557	167.11347	217.32871	168.07817	216.70799	446.16148	1259.6103	502.32050	394.81470	438.81401	403.06903	389.82981	399.85706	427.03136	424.99868	425.74517	429.31485	415.15236	407.67316	407.28194	127.83491	127.81047	125.97652
16.8676	16.8743	153	96	480.75944	224.80663	179.88801	166.67114	216.75297	167.63309	216.13374	444.97582	1256.2212	500.99009	393.76924	437.67566	401.99801	388.79318	398.79058	425.89405	423.88245	424.61373	428.20935	414.04653	406.77356	406.18955	127.49694	127.47112	125.63834
16.8743	16.8810	115	93	478.74429	223.86493	179.13357	165.97209	215.84458	166.93028	215.22806	443.10596	1250.9008	498.89030	392.11846	435.86423	400.30951	387.16035	397.11264	424.10221	422.11466	422.83036	426.44460	412.30433	405.22237	404.47174	126.96306	126.93530	125.10662
16.8810	16.8877	129	94	476.36897	222.75435	178.24461	165.14842	214.77370	166.10196	214.16018	440.90161	1244.6502	496.41494	390.17307	433.72494	398.31995	385.23594	395.13572	421.99151	420.02990	420.72883	424.35859	410.25215	403.35202	402.44991	126.33327	126.30457	124.48092
16.8877	16.8944	107	91	473.51527	221.41946	177.17700	164.15922	213.48700	165.10693	212.87685	438.25301	1237.1641	493.44075	387.83636	431.15019	395.93049	382.92424	392.76169	419.45731	417.52414	418.20470	421.84591	407.78825	401.05793	400.02425	125.57608	125.54778	123.73040
16.8944	16.9011	100	82	470.23953	219.88766	175.95128	163.02367	212.01004	163.96481	211.40430	435.21467	1228.5752	490.02720	385.15364	428.19081	393.18831	380.27091	390.03815	416.54888	414.64488	415.30800	418.95545	404.96157	398.39912	397.24238	124.70802	124.67851	122.86979
16.9011	16.9078	100	83	466.64141	218.20545	174.60478	161.77633	210.38775	162.71031	209.78720	431.87861	1219.1440	486.27802	382.20661	424.93760	390.17667	377.35661	387.04764	413.35458	411.48028	412.12669	415.77637	401.85776	395.46151	394.18841	123.75527	123.72330	121.92508
16.9078	16.9145	115	90	462.42652	216.23461	173.02774	160.31521	208.48763	161.24075	207.89215	427.97376	1208.1176	481.88594	378.75501	421.12225	386.64956	373.94374	383.54534	409.61507	407.77296	408.40103	412.04750	398.22190	391.99642	390.61385	122.63781	122.60476	120.81895
16.9145	16.9212	101	102	457.94610	214.13951	171.35145	158.76206	206.46791	159.67860	205.87743	423.82403	1196.4044	477.21708	375.08619	417.06489	382.90052	370.31622	379.82271	405.64085	403.83198	404.44101	408.08194	394.35697	388.30423	386.81516	121.44945	121.41591	119.64333
16.9212	16.9279	88	103	453.04730	211.84865	169.51825	157.06358	204.25902	157.97030	203.67513	419.28716	1183.6033	472.11200	371.07331	412.62447	378.80114	366.35082	375.75305	401.29340	399.52438	400.11078	403.74298	390.13246	384.24588	382.66378	120.15018	120.11595	118.36025
16.9279	16.9346	100	89	448.06157	209.51710	167.65245	155.33491	202.01084	156.23162	201.43385	414.66985	1170.5762	466.91629	366.98895	408.10449	374.62897	362.31521	371.61128	396.86841	395.14061	395.70363	399.32646	385.83324	380.11159	378.43912	118.82787	118.79290	117.05483
16.9346	16.9413	105	93	442.84317	207.07690	165.70003	153.52594	199.65832	154.41239	199.08764	409.83861	1156.9425	461.47856	362.71538	403.37343	370.26348	358.09084	367.27715	392.23826	390.55568	391.09196	394.69963	381.33412	375.76528	374.01925	117.44467	117.40780	115.68564
16.9413	16.9480	115	77	437.67380	204.65963	163.76593	151.73395	197.32788	152.61018	196.76348	405.05283	1143.4370	456.09185	358.48190	398.68688	365.93894	353.90615	362.98368	387.65132	386.01411	386.52360	390.11636	376.87719	371.46060	369.64067	116.07429	116.03569	114.32941
16.9480	16.9547	114	89	433.00597	202.47694	162.01916	150.11538	195.22312	150.98211	194.66496	400.73149	1131.2424	451.22705	354.65821	394.45550	362.03309	350.12739	359.10588	383.50632	381.91456	382.39798	385.97969	372.85165	367.58616	365.68408	114.83514	114.79661	113.10646
16.9547	16.9614	146	84	428.39329	200.32004	160.29309	148.51610	193.14327	149.37345	192.59125	396.46140	1119.1925	446.41989	350.87984	390.27430	358.17346	346.39293	355.27416	379.40974	377.86479	378.32108	381.89187	368.87392	363.75570	361.77448	113.61107	113.57233	111.89768
16.9614	16.9681	160	91	423.95057	198.24260	158.63082	146.97628	191.14018	147.82466	190.59398	392.34924	1107.5887	441.79035	347.24109	386.24773	354.45629	342.79492	351.58449	375.46230	373.96860	374.39431	377.95460	365.04353	360.06047	358.00974	112.43354	112.39367	110.73254
16.9681	16.9748	156	100	419.67491	196.24322	157.03092	145.49407	189.21231	146.33385	188.67166	388.39141	1096.4188	437.33467	343.73911	382.37283	350.87869	339.33117	348.03269	371.66181	370.21990	370.61466	374.16576	361.35652	356.50266	354.38613	111.29979	111.25912	109.61094
16.9748	16.9815	179	94	415.68987	194.37964	155.53953	144.11208	187.41529	144.94391	186.87974	384.70204	1086.0040	433.18145	340.47504	378.76177	347.54387	336.10099	344.72076	368.11701	366.72772	367.09095	370.63512	357.91896	353.18394	351.00803	110.24221	110.20131	108.56509
16.9815	16.9882	207	85	412.05642	192.67973	154.17930	142.85190	185.77622	143.67631	185.24540	381.33682	1076.5068	429.39321	337.49759	375.46953	344.50214	333.15542	341.70028	364.88311	363.54156	363.87705	367.41631	354.78337	350.16364	347.92552	109.27708	109.23636	107.61165
16.9882	16.9949	222	110	408.76923	191.14102	152.94826	141.71170	184.29272	142.52918	183.76627	378.29083	1067.9131	425.96442	334.80242	372.49130	341.74907	330.49016	338.96686	361.95543	360.65678	360.96827	364.50460	351.94520	347.43722	345.13411	108.40301	108.36286	106.74922
16.9949	17.0016	307	93	405.61843	189.66407	151.76628	140.61666	182.86886	141.42787	182.34625	375.36702	1059.6621	422.67291	332.21550	369.63246	339.10585	327.92990	336.34152	359.14763	357.88831	358.17533	361.70935	349.22048	344.81814	342.45386	107.56493	107.52366	105.91942
17.0016	17.0083	378	90	402.54243	188.22095	150.61116	139.54636	181.47768	140.35166	180.95863	372.51014	1051.5988	419.45660	329.68789	366.83903	336.52281	325.42712	333.77538	356.40555	355.18356	355.44582	358.97789	346.55790	342.25783	339.83449	106.74659	106.70324	105.10745
17.0083	17.0150	509	107	399.91919	186.98900	149.62551	138.63310	180.28982	139.43301	179.77413	370.07162	1044.7167	416.71126	327.52997	364.45733	334.31829	323.29150	331.58567	354.06752	352.87538	353.11648	356.64998	344.28407	340.08341	337.59704	106.04700	106.00359	104.41566
17.0150	17.0217	723	98	397.42808	185.81867	148.68931	137.76569	179.16130	138.56035	178.64892	367.75519	1038.1793	414.10336	325.47996	362.19581	332.22425	321.26304	329.50582	351.84741	350.68294	350.90394	354.43986	342.12370	338.02161	335.47105	105.38207	105.33919	103.75895
17.0217	17.0284	1107	95	395.75268	185.02837	148.05678	137.17948	178.39949	137.97101	177.88913	366.19018	1033.7641	412.34212	324.09599	360.67512	330.80953	319.88872	328.09816	350.34995	349.20494	349.40797	352.95309	340.66348	336.64380	334.03171	104.93338	104.88960	103.31219
17.0284	17.0351	1478	131	394.18597	184.28887	147.46486	136.63091	177.68668	137.41955	177.17816	364.72568	1029.6326	410.69408	322.80101	359.25339	329.48564	318.60182	326.78047	348.94904	347.82255	348.00784	351.56305	339.29684	335.35749	332.68413	104.51354	104.46874	102.89361
17.0351	17.0418	2105	130	393.17880	183.81336	147.08458	136.27857	177.22830	137.06502	176.72093	363.78512	1026.9765	409.63490	321.96813	358.34506	328.63448	317.76905	325.93230	348.04928	346.93961	347.10700	350.67688	338.41669	334.54863	331.81284	104.24277	104.19730	102.62363
17.0418	17.0485	2705	136	392.26805	183.38305	146.74041	135.95971	176.81349	136.74422	176.30718	362.93383	1024.5729	408.67636	321.21447	357.52491	327.86383	317.01342	325.16414	347.23497	346.14175	346.29150	349.87682	337.61964	333.82412	331.02323	103.99768	103.95142	102.37894
17.0485	17.0552	3100	144	391.81121	183.16557	146.56624	135.79842	176.60369	136.58221	176.09812	362.50277	1023.3579	408.19151	320.83375	357.11985	327.47221	316.62093	324.77265	346.82289	345.74436	345.87774	349.48204	337.21379	333.49641	330.61814	103.87353	103.82591	102.25324
17.0552	17.0619	3221	133	391.36252	182.95206	146.39526	135.64007	176.39776	136.42303	175.89283	362.07981	1022.1656	407.71550	320.45977	356.72252	327.08774	316.23614	324.38810	346.41855	345.35479	345.47141	349.09471	336.81540	333.17110	330.21994	103.75166	103.70227	102.12891
17.0619	17.0686	3232	149	390.93226	182.74750	146.23146	135.48840	176.20055	136.27022	175.69605	361.67512	1021.0244	407.25942	320.10103	356.34262	326.71940	315.86865	324.01924	346.03168	344.98284	345.08185	348.72418	336.43385	332.85131	329.83730	103.63495	103.58291	102.00768
17.0686	17.0753	3051	151	390.66043	182.61732	146.12719	135.39183	176.07494	136.17310	175.57073	361.41759	1020.2970	406.96916	319.87276	356.10757	326.48376	315.63443	323.78264	345.78537	344.74942	344.83285	348.49564	336.18891	332.66722	329.58847	103.55973	103.50569	101.92948
17.0753	17.0820	2860	132	390.58628	182.57991	146.09719	135.36401	176.03865	136.14544	175.53457	361.34366	1020.0861	406.88577	319.80727	356.05325	326.41365	315.56646	323.71103	345.71441	344.68886	344.75919	348.44424	336.11441	332.65247	329.50656	103.53626	103.48107	101.90495
17.0820	17.0887	2970	126	390.50483	182.53902	146.06440	135.33375	175.99944	136.11488	175.49516	361.26258	1019.8568	406.79452	319.73553	355.99273	326.33749	315.49419	323.63228	345.63673	344.62286	344.67880	348.38644	336.03364	332.63260	329.41948	103.51168	103.45432	101.87724
17.0887	17.0954	3021	156	390.41806	182.49558	146.02958	135.30169	175.95809	136.08220	175.45337	361.17628	1019.6141	406.69753	319.65921	355.92769	326.25689	315.41877	323.54833	345.55414	344.55286	344.59347	348.32396	335.94826	332.60901	329.32862	103.48628	103.42603	101.84721
17.0954	17.1021	3044	140	390.25602	182.41706	145.96692	135.24367	175.88392	136.02385	175.37807	361.02106	1019.1751	406.52265	319.52174	355.79798	326.11379	315.28365	323.40407	345.40609	344.42059	344.44237	348.19879	335.79914	332.52405	329.17263	103.44046	103.37905	101.79759
17.1021	17.1088	2960	112	390.06384	182.32451	145.89312	135.17524	175.79662	135.95523	175.28937	360.83827	1018.6575	406.31658	319.35979	355.64236	325.94566	315.12463	323.23568	345.23184	344.26337	344.26493	348.04851	335.62450	332.41447	328.99058	103.38648	103.32459	101.74014
17.1088	17.1155	2507	131	389.83827	182.21637	145.80648	135.09722	175.69919	135.87440	175.18502	360.62414	1018.0536	406.07545	319.17037	355.45432	325.74947	314.93766	323.03739	345.02676	344.07435	344.05749	347.86644	335.41955	332.27281	328.78111	103.32349	103.26038	101.67450
17.1155	17.1222	1975	106	389.60656	182.10535	145.71748	135.01742	175.59988	135.79131	175.07780	360.40426	1017.4339	405.82787	318.97590	355.26034	325.54812	314.74555	322.83361	344.81601	343.87949	343.84453	347.67855	335.20904	332.12529	328.56659	103.25884	103.19438	101.60735
17.1222	17.1289	1359	119	389.16632	181.89734	145.55116	134.86626	175.40622	135.63638	174.87832	359.99324	1016.2740	405.36448	318.61185	354.87399	325.17356	314.38688	322.45964	344.42244	343.49773	343.44923	347.30183	334.82166	331.79822	328.17654	103.13996	103.07552	101.48570
17.1289	17.1356	1057	91	388.74169	181.69662	145.39086	134.72082	175.21924	135.48687	174.68596	359.59664	1015.1543	404.91734	318.26055	354.50189	324.81200	314.04069	322.09859	344.04265	343.12950	343.06769	346.93909	334.44761	331.48466	327.79960	103.02514	102.96087	101.36780
17.1356	17.1423	675	102	388.46564	181.56524	145.28739	134.62914	175.09659	135.38896	174.56104	359.33715	1014.4186	404.62473	318.03059	354.26569	324.57417	313.81336	321.86024	343.79399	342.89093	342.81699	346.70974	334.20027	331.29956	327.54752	102.94888	102.88575	101.28622
17.1423	17.1490	505	84	388.18949	181.43392	145.18424	134.53718	174.97399	135.29108	174.43672	359.07762	1013.6834	404.33200	317.80049	354.02922	324.33638	313.58606	321.62165	343.54527	342.65244	342.56617	346.47980	333.95291	331.11417	327.29508	102.87266	102.81067	101.20445
17.1490	17.1557	345	100	387.91267	181.30262	145.08190	134.44425	174.85136	135.19316	174.31403	358.81761	1012.9484	404.03851	317.56965	353.79161	324.09836	313.35855	321.38202	343.29601	342.41382	342.31461	346.24777	333.70513	330.92760	327.04118	102.79646	102.73557	101.12196
17.1557	17.1624	266	94	387.51001	181.11281	144.93356	134.30700	174.67103	135.05226	174.13582	358.44136	1011.8848	403.61432	317.23608	353.43947	323.75533	313.02981	321.03883	342.93559	342.06440	341.95211	345.90412	333.34963	330.63600	326.68139	102.68638	102.62742	101.00757
17.1624	17.1691	229	97	386.90598	180.82935	144.71161	134.09882	174.39836	134.84259	173.86876	357.87911	1010.2953	402.98097	316.73808	352.90409	323.24424	312.53905	320.52989	342.39728	341.53766	341.41206	345.38184	332.82175	330.17638	326.15213	102.52207	102.46638	100.84212
17.1691	17.1758	183	96	386.33437	180.56254	144.50125	133.90169	174.14209	134.64670	173.61571	357.34679	1008.7909	402.38121	316.26650	352.40209	322.76004	312.07385	320.04672	341.88749	341.03733	340.90075	344.88758	332.32117	329.74456	325.65036	102.36619	102.31385	100.68362
17.1758	17.1825	149	75	385.79342	180.31147	144.30187	133.71504	173.90131	134.46382	173.37591	356.84280	1007.3672	401.81323	315.81992	351.93157	322.30129	311.63286	319.58797	341.40468	340.56202	340.41662	344.41982	331.84642	329.33897	325.17462	102.21830	102.16937	100.53173
17.1825	17.1892	128	93	385.06966	179.97501	144.03316	133.46553	173.57553	134.21444	173.05367	356.17063	1005.4666	401.05678	315.22387	351.30519	321.69035	311.04471	318.97928	340.76048	339.92678	339.77143	343.78949	331.21508	328.77054	324.54300	102.02277	101.97677	100.33574
17.1892	17.1959	130	77	384.24840	179.59302	143.72747	133.18251	173.20443	133.92960	172.68745	355.40879	1003.3118	400.19981	314.54812	350.59569	320.99826	310.37809	318.29062	340.03021	339.20625	339.04034	343.07247	330.50022	328.11532	323.82824	101.80183	101.75851	100.11622
17.1959	17.2026	121	97	383.77019	179.37281	143.55064	133.01732	172.99006	133.76488	172.47487	354.96452	1002.0516	399.70593	314.15345	350.20459	320.59284	309.98894	317.88509	339.60336	338.78965	338.61224	342.66124	330.08028	327.75608	323.40337	101.67056	101.63095	99.983914
17.2026	17.2093	120	89	383.38414	179.19605	143.40843	132.88377	172.81779	133.63241	172.30355	354.60557	1001.0317	399.30960	313.83429	349.89905	320.26441	309.67432	317.55561	339.25801	338.45469	338.26553	342.33215	329.73955	327.47636	323.05636	101.56337	101.52777	99.875024
17.2093	17.2160	122	91	383.00285	179.02156	143.26638	132.75181	172.64613	133.50086	172.13239	354.25163	1000.0268	398.92263	313.51867	349.59357	319.93949	309.36322	317.23198	338.91731	338.12105	337.92321	342.00773	329.40268	327.19260	322.71128	101.45882	101.42565	99.769959
17.2160	17.2227	109	80	382.62163	178.84701	143.12428	132.61991	172.47437	133.36925	171.96116	353.89785	999.02204	398.53603	313.20310	349.28762	319.61461	309.05210	316.90915	338.57665	337.78707	337.58094	341.68339	329.06584	326.90804	322.36596	101.35439	101.32355	99.665284
17.2227	17.2294	104	86	382.23298	178.66712	142.98036	132.48622	172.29932	133.23457	171.78775	353.53760	997.99309	398.14008	312.88164	348.97211	319.28365	308.73403	316.58984	338.22855	337.44366	337.23142	341.35200	328.72253	326.61427	322.01189	101.24788	101.21946	99.561187
17.2294	17.2361	112	98	381.95275	178.53815	142.87666	132.39000	172.17331	133.13770	171.66300	353.27811	997.24853	397.85666	312.64896	348.75469	319.04339	308.50383	316.36247	337.97657	337.19624	336.97767	341.11752	328.47271	326.41446	321.74852	101.17040	101.14417	99.485431
17.2361	17.2428	96	83	382.13172	178.62487	142.94329	132.45248	172.25502	133.20103	171.74434	353.44550	997.70860	398.04997	312.79236	348.95284	319.18732	308.64586	316.52460	338.13180	337.35547	337.12958	341.29358	328.61892	326.61273	321.86936	101.21594	101.19082	99.529716
17.2428	17.2495	81	80	382.38511	178.74561	143.03839	132.54062	172.36994	133.29029	171.85894	353.68190	998.36201	398.31951	312.99672	349.21708	319.39319	308.84785	316.74823	338.35266	337.57971	337.34711	341.53606	328.82877	326.87320	322.05367	101.28112	101.25712	99.593280
17.2495	17.2562	67	99	382.79255	178.93681	143.19246	132.68188	172.55359	133.43324	172.04239	354.06121	999.41576	398.74691	313.32731	349.61811	319.72731	309.17399	317.09919	338.70940	337.93857	337.70052	341.91607	329.17038	327.26238	322.36948	101.38697	101.36414	99.696769
17.2562	17.2629	60	83	383.22886	179.14180	143.35645	132.83350	172.75027	133.58589	172.23882	354.46703	1000.5442	399.20465	313.68136	350.04697	320.08578	309.52316	317.47824	339.09193	338.32135	338.07945	342.32209	329.53696	327.67668	322.70724	101.50035	101.47880	99.807922
17.2629	17.2696	59	97	383.69945	179.36316	143.53225	132.99740	172.96241	133.75009	172.45065	354.90431	1001.7612	399.69840	314.06327	350.50885	320.47316	309.89968	317.89063	339.50507	338.73256	338.48869	342.75901	329.93317	328.12082	323.07106	101.62268	101.60254	99.928171
17.2696	17.2763	54	94	384.37116	179.67810	143.78364	133.23036	173.26558	133.98453	172.75324	355.52709	1003.5054	400.40100	314.60999	351.15150	321.02838	310.43923	318.45508	340.09625	339.31617	339.07573	343.37515	330.50207	328.73867	323.60590	101.79888	101.77947	100.10058
17.2763	17.2830	69	95	385.18121	180.05739	144.08702	133.51081	173.63135	134.26728	173.11825	356.27744	1005.6121	401.24723	315.27005	351.91850	321.69902	311.09091	319.12417	340.80987	340.01835	339.78504	344.11454	331.18971	329.47603	324.25832	102.01212	101.99297	100.30886
17.2830	17.2897	59	98	385.99462	180.43840	144.39173	133.79333	173.99771	134.55154	173.48424	357.02998	1007.7245	402.09674	315.93257	352.69191	322.37260	311.74488	319.80382	341.52590	340.72535	340.49701	344.85711	331.87970	330.20802	324.91294	102.22622	102.20724	100.51851
17.2897	17.2964	52	88	386.80945	180.82012	144.69700	134.07670	174.36437	134.83643	173.85067	357.78349	1009.8395	402.94766	316.59614	353.46787	323.04742	312.39986	320.48755	342.24298	341.43430	341.21014	345.60102	332.57071	330.93817	325.56853	102.44068	102.42184	100.72871
17.2964	17.3031	62	86	387.61614	181.19773	144.99842	134.35597	174.72871	135.11748	174.21340	358.52964	1011.9350	403.78886	317.25289	354.23176	323.71508	313.04755	321.16155	342.95305	342.13943	341.91607	346.33717	333.25552	331.67319	326.23088	102.65343	102.63452	100.93596
17.3031	17.3098	61	84	388.42099	181.57443	145.29902	134.63441	175.09244	135.39773	174.57529	359.27411	1014.0260	404.62795	317.90812	354.99321	324.38116	313.69366	321.83355	343.66153	342.84348	342.62038	347.07159	333.93888	332.40850	326.89387	102.86576	102.84676	101.14260
17.3098	17.3165	74	97	388.97900	181.83557	145.50836	134.82797	175.34349	135.59337	174.82606	359.78980	1015.4733	405.21118	318.36206	355.53186	324.84140	314.14169	322.29704	344.15165	343.33605	343.10767	347.58751	334.40939	332.92491	327.35470	103.01229	102.99366	101.28567
17.3165	17.3232	78	98	389.55235	182.10389	145.72333	135.02684	175.60150	135.79412	175.08375	360.31956	1016.9602	405.81022	318.82839	356.08415	325.31441	314.60201	322.77360	344.65528	343.84241	343.60846	348.11706	334.89353	333.45506	327.82843	103.16296	103.14458	101.43263
17.3232	17.3299	78	84	390.23068	182.42147	145.97685	135.26203	175.90723	136.02993	175.38890	360.94582	1018.7176	406.51763	319.37971	356.72980	325.87494	315.14653	323.33971	345.25158	344.44298	344.20168	348.73985	335.47096	334.07920	328.39044	103.34204	103.32310	101.60627
17.3299	17.3366	78	96	390.87967	182.72510	146.21932	135.48691	176.19974	136.25566	175.68062	361.54472	1020.3990	407.19413	319.90707	357.34927	326.41072	315.66708	323.88059	345.82175	345.01952	344.76877	349.33602	336.02372	334.67718	328.92762	103.51312	103.49380	101.77236
17.3366	17.3433	79	91	391.44755	182.99016	146.43124	135.68328	176.45569	136.45352	175.93520	362.06797	1021.8704	407.78520	320.36819	357.89641	326.87808	316.12133	324.35165	346.31969	345.52967	345.26363	349.85864	336.50828	335.20286	329.39616	103.66207	103.64289	101.91754
17.3433	17.3500	73	94	391.84263	183.17453	146.57885	135.81994	176.63328	136.59122	176.11224	362.43148	1022.8904	408.19668	320.68779	358.28397	327.20123	316.43603	324.67957	346.66477	345.88884	345.60573	350.22719	336.84446	335.57921	329.71955	103.76529	103.74628	102.01768
17.3500	17.3567	68	90	391.97838	183.23780	146.62993	135.86697	176.69327	136.63863	176.17293	362.55526	1023.2330	408.33866	320.79502	358.43205	327.30796	316.54132	324.79266	346.78047	346.02145	345.71859	350.36453	336.95797	335.73153	329.82508	103.79987	103.78108	102.05023
17.3567	17.3634	83	87	391.93352	183.21676	146.61295	135.85144	176.67300	136.62281	176.15246	362.51230	1023.1037	408.29228	320.75626	358.41707	327.26439	316.50162	324.75489	346.73662	345.99596	345.67240	350.34025	336.91825	335.73192	329.77849	103.78697	103.76811	102.03574
17.3634	17.3701	103	95	391.73106	183.12214	146.53659	135.78131	176.58269	136.55182	176.06117	362.32383	1022.5625	408.08155	320.59010	358.25979	327.08964	316.33540	324.58548	346.55353	345.83251	345.48742	350.17494	336.74481	335.59976	329.59914	103.73262	103.71344	101.98020
17.3701	17.3768	113	106	391.68044	183.09859	146.51762	135.76338	176.55982	136.53423	176.03833	362.27581	1022.4201	408.02918	320.55311	358.23898	327.04162	316.29116	324.54459	346.50503	345.80233	345.43652	350.14573	336.70250	335.59684	329.54780	103.71808	103.69901	101.96460
17.3768	17.3835	128	99	391.70534	183.11040	146.52721	135.77143	176.57051	136.54322	176.04953	362.29764	1022.4761	408.05558	320.58036	358.28604	327.05663	316.30760	324.56764	346.52347	345.83843	345.45231	350.18422	336.72542	335.65818	329.56015	103.72334	103.70459	101.96887
17.3835	17.3902	116	87	391.80062	183.15609	146.56341	135.80546	176.61406	136.57705	176.09267	362.38603	1022.7168	408.15713	320.66793	358.40056	327.13142	316.38262	324.64408	346.60578	345.93903	345.53130	350.28686	336.80587	335.78563	329.63291	103.74800	103.72927	101.99120
17.3902	17.3969	117	86	391.91332	183.21017	146.60619	135.84592	176.66575	136.61703	176.14371	362.49089	1023.0032	408.27728	320.77043	358.53179	327.22100	316.47215	324.73375	346.70389	346.05559	345.62592	350.40538	336.90057	335.92946	329.72063	103.77745	103.75868	102.01800
17.3969	17.4036	104	87	391.95477	183.22955	146.62161	135.85969	176.68527	136.63149	176.16334	362.52885	1023.1049	408.32060	320.81048	358.59811	327.25085	316.50307	324.77070	346.73746	346.10908	345.65676	350.46104	336.93502	336.00272	329.74790	103.78765	103.76901	102.02683
17.4036	17.4103	118	93	391.99052	183.24623	146.63493	135.87152	176.70214	136.64399	176.18037	362.56149	1023.1917	408.35797	320.84566	358.65925	327.27594	316.52934	324.80289	346.76596	346.15756	345.68252	350.51172	336.96447	336.07079	329.77037	103.79632	103.77780	102.03417
17.4103	17.4170	98	93	392.01457	183.25817	146.64495	135.88138	176.71265	136.65328	176.19109	362.58351	1023.2479	408.38520	320.87208	358.70966	327.29118	316.54638	324.81926	346.78491	346.19599	345.69800	350.55260	336.98164	336.13300	329.78337	103.80212	103.78331	102.03789
17.4170	17.4237	99	77	392.03752	183.26962	146.65435	135.89052	176.72299	136.66201	176.20157	362.60448	1023.3009	408.41109	320.89679	358.75875	327.30550	316.56257	324.83568	346.80281	346.23339	345.71263	350.59230	336.99777	336.19413	329.79537	103.80758	103.78853	102.04141
17.4237	17.4304	96	82	392.05623	183.27921	146.66136	135.89687	176.73276	136.66865	176.21113	362.62137	1023.3418	408.43186	320.91487	358.80277	327.31629	316.57551	324.85229	346.81665	346.26683	345.72402	350.62755	337.00989	336.25113	329.80356	103.81177	103.79265	102.04416
17.4304	17.4371	84	85	392.07489	183.28866	146.66866	135.90370	176.74229	136.67541	176.22039	362.63857	1023.3838	408.45262	320.93366	358.84727	327.32726	316.58853	324.86785	346.83068	346.30011	345.73544	350.66248	337.02251	336.30693	329.81179	103.81594	103.79690	102.04685
17.4371	17.4438	84	103	392.09349	183.29783	146.67655	135.91148	176.75136	136.68243	176.22905	362.65636	1023.4278	408.47341	320.95385	358.89274	327.33858	316.60176	324.88140	346.84514	346.33312	345.74690	350.69686	337.03608	336.36043	329.82011	103.82009	103.80141	102.04941
17.4438	17.4505	81	80	392.10354	183.30323	146.68090	135.91567	176.75701	136.68654	176.23425	362.66616	1023.4498	408.48565	320.96571	358.92958	327.34243	316.60769	324.88762	346.85174	346.35838	345.75058	350.72391	337.04110	336.40898	329.82108	103.82205	103.80355	102.04974
17.4505	17.4572	82	96	392.10409	183.30445	146.68131	135.91589	176.75884	136.68741	176.23560	362.66708	1023.4473	408.48837	320.96830	358.95679	327.33797	316.60552	324.88569	346.84961	346.37502	345.74561	350.74281	337.03663	336.45197	329.81389	103.82157	103.80307	102.04758
17.4572	17.4639	90	74	392.09864	183.30224	146.67962	135.91488	176.75761	136.68582	176.23348	362.66224	1023.4320	408.48385	320.96702	358.97912	327.32886	316.59891	324.88015	346.84247	346.38691	345.73569	350.75616	337.02713	336.48751	329.80187	103.81943	103.80103	102.04402
17.4639	17.4706	82	91	392.08932	183.29783	146.67656	135.91307	176.75439	136.68265	176.22911	362.65367	1023.4085	408.47466	320.96325	358.99830	327.31674	316.58944	324.87227	346.83207	346.39574	345.72257	350.76595	337.01439	336.51827	329.78674	103.81622	103.79798	102.03956
17.4706	17.4773	91	82	392.07636	183.29261	146.67256	135.90957	176.74913	136.67905	176.22426	362.64196	1023.3878	408.46221	320.95527	359.01305	327.30123	316.57703	324.85889	346.81807	346.40057	345.70557	350.77189	336.99902	336.54942	329.76842	103.81235	103.79372	102.03370
17.4773	17.4840	87	76	392.06214	183.28710	146.66822	135.90548	176.74316	136.67531	176.21923	362.62916	1023.3681	408.44863	320.94583	359.02626	327.28453	316.56361	324.84359	346.80280	346.40402	345.68722	350.77651	336.98273	336.58072	329.74898	103.80824	103.78904	102.02735
17.4840	17.4907	90	94	392.03931	183.27669	146.66033	135.89741	176.73314	136.66730	176.21005	362.61037	1023.3330	408.42604	320.92893	359.03361	327.26081	316.54266	324.82338	346.78041	346.40014	345.66200	350.77440	336.95754	336.60004	329.72221	103.80139	103.78230	102.01930
17.4907	17.4974	110	94	392.01493	183.26544	146.65182	135.88867	176.72240	136.65861	176.20013	362.59044	1023.2947	408.40186	320.91071	359.03980	327.23583	316.52041	324.80218	346.75673	346.39494	345.63552	350.77105	336.93084	336.61742	329.69414	103.79407	103.77519	102.01091
17.4974	17.5041	96	83	391.96009	183.24159	146.63312	135.86996	176.69725	136.64102	176.17681	362.54335	1023.1715	408.34668	320.86846	359.01667	327.18611	316.47438	324.75290	346.70655	346.36349	345.58248	350.74084	336.88008	336.61230	329.64089	103.77901	103.76055	101.99438
17.5041	17.5108	106	92	391.90653	183.21815	146.61466	135.85168	176.67280	136.62379	176.15402	362.49719	1023.0527	408.29280	320.82715	358.99507	327.13740	316.42937	324.70482	346.65738	346.33301	345.53043	350.71159	336.83023	336.60783	329.58869	103.76427	103.74612	101.97818
17.5108	17.5175	99	82	391.86028	183.19712	146.59750	135.83590	176.65247	136.60858	176.13423	362.45640	1022.9590	408.24635	320.79122	358.98231	327.09443	316.39017	324.66361	346.61397	346.30806	345.48404	350.68787	336.78560	336.60720	329.54248	103.75132	103.73290	101.96395
17.5175	17.5242	97	82	391.81562	183.17701	146.58095	135.82055	176.63268	136.59387	176.11485	362.41737	1022.8668	408.20156	320.75645	358.97088	327.05262	316.35214	324.62401	346.57214	346.28476	345.43934	350.66570	336.74191	336.60889	329.49758	103.73877	103.72023	101.95012
17.5242	17.5309	89	76	391.77515	183.15932	146.56600	135.80635	176.61431	136.58050	176.09656	362.38294	1022.7784	408.16110	320.72476	358.96288	327.01388	316.31720	324.58867	346.53447	346.26572	345.39907	350.64756	336.70076	336.61651	329.45616	103.72730	103.70901	101.93737
17.5309	17.5376	65	84	391.73291	183.14073	146.55037	135.79178	176.59517	136.56631	176.07765	362.34655	1022.6826	408.11921	320.69169	358.95290	326.97399	316.28067	324.55012	346.49509	346.24490	345.35702	350.62759	336.65864	336.62181	329.41313	103.71556	103.69724	101.92403
17.5376	17.5443	85	96	391.68814	183.12086	146.53379	135.77666	176.57491	136.55095	176.05783	362.30738	1022.5760	408.07524	320.65666	358.94009	326.93247	316.24184	324.50699	346.45325	346.22154	345.31241	350.60502	336.61514	336.62381	329.36779	103.70344	103.68468	101.90985
17.5443	17.5510	96	86	391.62203	183.09091	146.50900	135.75379	176.54549	136.52811	176.02826	362.24884	1022.4155	408.00899	320.60438	358.90772	326.87324	316.18666	324.44841	346.39280	346.17936	345.24921	350.56354	336.55243	336.60649	329.30498	103.68549	103.66661	101.89052
17.5510	17.5577	71	90	391.53832	183.05265	146.47745	135.72452	176.50851	136.49909	175.99062	362.17430	1022.2106	407.92433	320.53786	358.85923	326.79937	316.11796	324.37707	346.31700	346.12165	345.17067	350.50646	336.47385	336.57325	329.22774	103.66273	103.64399	101.86692
17.5577	17.5644	78	67	391.45734	183.01498	146.44722	135.69657	176.47161	136.47064	175.95405	362.10173	1022.0054	407.84209	320.47290	358.80942	326.72727	316.05042	324.30415	346.24403	346.06615	345.09424	350.45178	336.39783	336.54374	329.15202	103.64050	103.62199	101.84356
17.5644	17.5711	73	106	391.37767	182.97761	146.41761	135.66924	176.43477	136.44245	175.91800	362.03011	1021.8000	407.76099	320.40868	358.75901	326.65601	315.98345	324.23053	346.17241	346.01169	345.01883	350.39824	336.32303	336.51596	329.07702	103.61852	103.60029	101.82032
17.5711	17.5778	93	90	391.29948	182.94167	146.38844	135.64199	176.40019	136.41565	175.88319	361.95970	1021.6070	407.68073	320.34625	358.71177	326.58644	315.91818	324.15912	346.10534	345.95917	344.94485	350.34590	336.24982	336.49251	329.00410	103.59724	103.57890	101.79792
17.5778	17.5845	113	90	391.22168	182.90608	146.35940	135.61477	176.36614	136.38917	175.84869	361.88961	1021.4169	407.60070	320.28426	358.66527	326.51729	315.85333	324.08827	346.03935	345.90713	344.87125	350.29387	336.17702	336.47003	328.93170	103.57614	103.55759	101.77573
17.5845	17.5912	145	83	391.14412	182.86936	146.33042	135.58832	176.33022	136.36175	175.81360	361.81962	1021.2234	407.52002	320.22242	358.61773	326.44839	315.78924	324.01776	345.97859	345.85487	344.79778	350.24297	336.10241	336.43823	328.85896	103.55497	103.53650	101.75302
17.5912	17.5979	181	90	391.06467	182.83178	146.30072	135.56120	176.29349	136.33369	175.77764	361.74782	1021.0244	407.43734	320.15894	358.56836	326.37789	315.72356	323.94606	345.91643	345.80084	344.72262	350.19035	336.02622	336.40473	328.78459	103.53329	103.51491	101.72983
17.5979	17.6046	205	107	390.96529	182.78582	146.26345	135.52668	176.24947	136.29958	175.73292	361.65723	1020.7683	407.33433	320.07835	358.50027	326.29078	315.64090	323.86184	345.83691	345.72848	344.62984	350.11905	335.93472	336.35852	328.69362	103.50648	103.48798	101.70196
17.6046	17.6113	287	90	390.86392	182.73880	146.22543	135.49142	176.20421	136.26460	175.68734	361.56496	1020.5077	407.22914	319.99619	358.43037	326.20177	315.55666	323.77597	345.75558	345.65456	344.53540	350.04601	335.84117	336.31024	328.60094	103.47911	103.46056	101.67342
17.6113	17.6180	346	94	390.75546	182.68794	146.18467	135.45355	176.15448	136.22653	175.63868	361.46667	1020.2304	407.11618	319.90835	358.35396	326.10600	315.46680	323.68418	345.66774	345.57501	344.43502	349.96667	335.74026	336.25459	328.50214	103.44972	103.43138	101.64243
17.6180	17.6247	420	81	390.64513	182.63622	146.14328	135.41523	176.10441	136.18795	175.58908	361.36624	1019.9467	407.00115	319.81918	358.27602	326.00407	315.37565	323.59182	345.57756	345.49364	344.33274	349.88534	335.63700	336.19923	328.40172	103.41985	103.40159	101.61128
17.6247	17.6314	422	88	390.53126	182.58286	146.10068	135.37603	176.05366	136.14839	175.53770	361.26177	1019.6509	406.88216	319.72745	358.19520	325.89076	315.28200	323.49831	345.48300	345.40884	344.22685	349.80027	335.52930	336.14431	328.29819	103.38907	103.37065	101.57979
17.6314	17.6381	393	95	390.41706	182.52969	146.05787	135.33653	176.00240	136.10858	175.48654	361.15783	1019.3589	406.76372	319.63552	358.11402	325.77149	315.18871	323.40356	345.38772	345.32416	344.12119	349.71563	335.42283	336.08836	328.19481	103.35826	103.33974	101.54777
17.6381	17.6448	310	101	390.30256	182.47672	146.01483	135.29672	175.95063	136.06850	175.43562	361.05445	1019.0710	406.64587	319.54339	358.03249	325.64599	315.09580	323.30755	345.29171	345.23965	344.01581	349.63146	335.31768	336.03136	328.09160	103.32742	103.30888	101.51521
17.6448	17.6515	288	103	390.19833	182.42788	145.97584	135.26070	175.90362	136.03211	175.38857	360.95885	1018.8049	406.53685	319.45878	357.96006	325.52745	315.01517	323.22054	345.20355	345.16298	343.91906	349.55572	335.21834	335.98179	327.99656	103.29901	103.28076	101.48591
17.6515	17.6582	207	93	390.10042	182.38157	145.93934	135.22699	175.85955	135.99799	175.34390	360.86804	1018.5522	406.43326	319.37882	357.89321	325.41323	314.94203	323.13906	345.12020	345.09112	343.82762	349.48517	335.12262	335.93676	327.90655	103.27211	103.25431	101.45860
17.6582	17.6649	143	80	390.05001	182.35846	145.92037	135.20940	175.83675	135.98062	175.32143	360.82296	1018.4234	406.38113	319.33937	357.86894	325.34384	314.91099	323.09663	345.07886	345.06162	343.77841	349.45686	335.06845	335.93476	327.85697	103.25844	103.24064	101.44318
17.6649	17.6716	119	70	390.01483	182.34279	145.90702	135.19698	175.82076	135.96862	175.30607	360.79255	1018.3342	406.34551	319.31291	357.85833	325.28880	314.89346	323.06673	345.05098	345.04572	343.74273	349.44209	335.02760	335.94658	327.82035	103.24900	103.23107	101.43156
17.6716	17.6783	115	77	389.99113	182.33101	145.89824	135.18890	175.81019	135.96025	175.29514	360.77135	1018.2763	406.32013	319.29414	357.85939	325.25012	314.88278	323.04636	345.03254	345.04072	343.71660	349.43863	334.99421	335.96364	327.79217	103.24187	103.22488	101.42305
17.6783	17.6850	99	96	389.96880	182.31973	145.89001	135.18132	175.80026	135.95231	175.28474	360.75123	1018.2222	406.29602	319.27633	357.86188	325.21341	314.87285	323.02716	345.01525	345.03706	343.69163	349.43654	334.96166	335.98142	327.76502	103.23502	103.21912	101.41492
17.6850	17.6917	74	81	389.94570	182.30953	145.88104	135.17289	175.78954	135.94438	175.27443	360.72992	1018.1644	406.27265	319.25986	357.86489	325.17618	314.85913	323.00855	344.99737	345.03360	343.66640	349.43416	334.92664	336.00209	327.73777	103.22850	103.21429	101.40653
17.6917	17.6984	82	106	389.91921	182.29757	145.87089	135.16341	175.77739	135.93517	175.26256	360.70550	1018.0987	406.24552	319.24038	357.86455	325.13636	314.84262	322.98663	344.97634	345.02700	343.63816	349.42892	334.88897	336.01968	327.70774	103.22101	103.20888	101.39722
17.6984	17.7051	88	85	389.87481	182.27635	145.85447	135.14840	175.75770	135.91921	175.24249	360.66469	1017.9905	406.19854	319.20501	357.84650	325.08276	314.81144	322.94736	344.93864	345.00389	343.59403	349.40860	334.83718	336.02111	327.66293	103.20849	103.20043	101.38307
17.7051	17.7118	79	83	389.82538	182.25311	145.83601	135.13140	175.73559	135.90180	175.22020	360.61945	1017.8683	406.14681	319.16595	357.82436	325.02496	314.77576	322.90520	344.89675	344.97660	343.54562	349.38492	334.78253	336.01864	327.61386	103.19470	103.19007	101.36786
17.7118	17.7185	87	86	389.76392	182.22500	145.81266	135.10962	175.70766	135.88089	175.19258	360.56363	1017.7122	406.08369	319.11809	357.79242	324.95712	314.72926	322.85617	344.84481	344.93928	343.48694	349.35319	334.72101	336.00678	327.55454	103.17789	103.17514	101.35013
17.7185	17.7252	91	80	389.70043	182.19564	145.78884	135.08767	175.67899	135.85897	175.16415	360.50608	1017.5497	406.01813	319.06866	357.75813	324.88927	314.68158	322.80327	344.79141	344.89993	343.42666	349.32309	334.65872	335.99479	327.49364	103.16060	103.16034	101.33139
17.7252	17.7319	83	93	389.63431	182.16465	145.76443	135.06552	175.64934	135.83576	175.13468	360.44629	1017.3788	405.94938	319.01719	357.72077	324.82150	314.63237	322.74529	344.73614	344.85793	343.36434	349.29521	334.59548	335.98263	327.43070	103.14271	103.14574	101.31135
17.7319	17.7386	82	69	389.56897	182.13404	145.73973	135.04271	175.61990	135.81279	175.10504	360.38598	1017.2102	405.88074	318.96495	357.68383	324.75343	314.58306	322.69045	344.67976	344.81629	343.30184	349.27106	334.53502	335.96593	327.36774	103.12459	103.13027	101.29221
17.7386	17.7453	57	96	389.50420	182.10371	145.71479	135.01936	175.59062	135.79000	175.07524	360.32524	1017.0433	405.81214	318.91209	357.64719	324.68509	314.53364	322.63803	344.62249	344.77490	343.23916	349.24977	334.47668	335.94569	327.30471	103.10629	103.11412	101.27378
17.7453	17.7520	64	79	389.43850	182.07257	145.69042	134.99693	175.56069	135.76715	175.04572	360.26508	1016.8752	405.74367	318.85934	357.61054	324.61682	314.48306	322.58254	344.56598	344.73294	343.17670	349.23147	334.41844	335.92953	327.24182	103.08846	103.09776	101.25512
17.7520	17.7587	75	94	389.37240	182.04108	145.66628	134.97490	175.53048	135.74427	175.01631	360.20517	1016.7066	405.67523	318.80662	357.57388	324.54857	314.43196	322.52572	344.50979	344.69071	343.11432	349.21447	334.36023	335.91514	327.17898	103.07084	103.08129	101.23636
17.7587	17.7654	83	86	389.30214	182.00838	145.63940	134.95006	175.49884	135.71949	174.98451	360.14048	1016.5280	405.60146	318.74889	357.53210	324.47828	314.37654	322.46662	344.44861	344.64458	343.04697	349.19339	334.29710	335.89502	327.11137	103.05143	103.06396	101.21765
17.7654	17.7721	104	87	389.23109	181.97546	145.61198	134.92468	175.46694	135.69434	174.95225	360.07486	1016.3474	405.52665	318.69019	357.48930	324.40762	314.32028	322.40709	344.38647	344.59769	342.97867	349.17150	334.23301	335.87375	327.04284	103.03168	103.04647	101.19896
17.7721	17.7788	103	89	389.14797	181.93642	145.58124	134.89645	175.42873	135.66531	174.91507	359.99882	1016.1362	405.43989	318.62227	357.43627	324.32739	314.25580	322.33753	344.31446	344.54069	342.90077	349.14458	334.15981	335.84048	326.96545	103.00923	103.02538	101.17637
17.7788	17.7855	98	90	389.06447	181.89724	145.55033	134.86804	175.39044	135.63618	174.87770	359.92235	1015.9236	405.35281	318.55405	357.38284	324.24656	314.19090	322.26761	344.24211	344.48325	342.82255	349.11642	334.08625	335.80704	326.88774	102.98676	103.00423	101.15393
17.7855	17.7922	110	57	388.98147	181.85887	145.51888	134.83891	175.35356	135.60739	174.84022	359.84528	1015.7073	405.26665	318.48604	357.32912	324.16333	314.12483	322.19772	344.16979	344.42515	342.74446	349.07866	334.01252	335.77590	326.81008	102.96489	102.98368	101.13397
17.7922	17.7989	88	80	388.89842	181.82022	145.48753	134.80986	175.31638	135.57846	174.80281	359.76842	1015.4921	405.18015	318.41802	357.27549	324.08096	314.05887	322.12789	344.09758	344.36733	342.66643	349.03993	333.93874	335.74422	326.73227	102.94338	102.96282	101.11390
17.7989	17.8056	111	91	388.81540	181.78075	145.45655	134.78113	175.27834	135.54914	174.76573	359.69246	1015.2806	405.09276	318.35012	357.22231	324.00161	313.99345	322.05841	344.02586	344.31055	342.58882	348.99816	333.86501	335.71082	326.65418	102.92308	102.94097	101.09350
17.8056	17.8123	76	90	388.73217	181.74142	145.42535	134.75222	175.24050	135.52002	174.72817	359.61597	1015.0699	405.00534	318.28194	357.16909	323.92156	313.92797	321.98861	343.95373	344.25319	342.51081	348.95631	333.79130	335.68028	326.57592	102.90240	102.91922	101.07226
17.8123	17.8190	84	84	388.64853	181.70234	145.39372	134.72300	175.20301	135.49126	174.68978	359.53855	1014.8602	404.91781	318.21325	357.11576	323.84025	313.86232	321.91822	343.88085	344.19481	342.43208	348.91429	333.71761	335.65461	326.49734	102.88108	102.89763	101.04957
17.8190	17.8257	58	81	388.56011	181.66084	145.36040	134.69225	175.16322	135.46022	174.64971	359.45715	1014.6351	404.82556	318.14067	357.05735	323.75574	313.79210	321.84362	343.80365	344.13229	342.34942	348.86757	333.63951	335.62090	326.41528	102.85869	102.87491	101.02597
17.8257	17.8324	60	77	388.46693	181.61693	145.32539	134.65996	175.12116	135.42691	174.60795	359.37178	1014.3947	404.72857	318.06422	356.99389	323.66804	313.71732	321.76481	343.72213	344.06565	342.26285	348.81619	333.55704	335.57922	326.32975	102.83526	102.85108	101.00144
17.8324	17.8391	57	97	388.37375	181.57338	145.29082	134.62772	175.07914	135.39456	174.56594	359.28643	1014.1566	404.63160	317.98796	356.93124	323.58006	313.64307	321.68641	343.64121	343.99937	342.17628	348.76356	333.47487	335.53945	326.24489	102.81220	102.82708	100.97672
17.8391	17.8458	45	97	388.28064	181.53006	145.25653	134.59555	175.03719	135.36278	174.52381	359.20118	1013.9201	404.53471	317.91189	356.86911	323.49201	313.56919	321.60832	343.56069	343.93336	342.08979	348.71027	333.39295	335.50082	326.16050	102.78938	102.80300	100.95192
17.8458	17.8525	54	76	388.18807	181.48648	145.22145	134.56326	174.99537	135.33002	174.48228	359.11602	1013.6792	404.43763	317.83519	356.80627	323.40512	313.49583	321.53058	343.47942	343.86744	342.00323	348.65585	333.31113	335.46380	326.07731	102.76588	102.77855	100.92712
17.8525	17.8592	38	83	388.09572	181.44285	145.18616	134.53096	174.95361	135.29699	174.44096	359.03094	1013.4371	404.34057	317.75835	356.74327	323.31864	313.42268	321.45300	343.39798	343.80159	341.91670	348.60113	333.22940	335.42728	325.99454	102.74219	102.75402	100.90234
17.8592	17.8659	55	78	387.99968	181.39806	145.15055	134.49759	174.91028	135.26397	174.39744	358.94236	1013.1895	404.24032	317.68006	356.67891	323.22884	313.34670	321.37312	343.31404	343.73275	341.82757	348.54491	333.14442	335.38710	325.91144	102.71875	102.72948	100.87577
17.8659	17.8726	44	76	387.90289	181.35296	145.11474	134.46399	174.86659	135.23076	174.35356	358.85304	1012.9401	404.13934	317.60125	356.61392	323.13839	313.27003	321.29261	343.22950	343.66333	341.73780	348.48813	333.05877	335.34621	325.82809	102.69520	102.70480	100.84896
17.8726	17.8793	34	76	387.79864	181.30388	145.07503	134.42786	174.81916	135.19365	174.30690	358.75595	1012.6668	404.03021	317.51505	356.53819	323.04208	313.18493	321.20365	343.13794	343.58850	341.64067	348.42235	332.96670	335.29805	325.74099	102.66865	102.67719	100.82122
17.8793	17.8860	34	86	387.69428	181.25474	145.03537	134.39160	174.77181	135.15669	174.26005	358.65880	1012.3930	403.92098	317.42884	356.46314	322.94577	313.10019	321.11500	343.04643	343.51409	341.54350	348.35620	332.87450	335.24918	325.65421	102.64209	102.64959	100.79321
17.8860	17.8927	43	72	387.58929	181.20534	144.99588	134.35466	174.72477	135.12033	174.21230	358.56127	1012.1172	403.81123	317.34263	356.39122	322.84940	313.01708	321.02771	342.95511	343.44165	341.44606	348.28824	332.78170	335.19687	325.56892	102.61547	102.62206	100.76393
17.8927	17.8994	52	90	387.48436	181.15610	144.95653	134.31799	174.67744	135.08386	174.16473	358.46396	1011.8415	403.70161	317.25639	356.31834	322.75385	312.93378	320.93997	342.86364	343.36913	341.34791	348.22134	332.68890	335.14465	325.48327	102.58868	102.59459	100.73510
17.8994	17.9061	51	91	387.37937	181.10713	144.91743	134.28189	174.62938	135.04705	174.11749	358.36695	1011.5655	403.59210	317.16994	356.24322	322.65997	312.84993	320.85107	342.77174	343.29634	341.24800	348.15671	332.59597	335.09255	325.39669	102.56149	102.56723	100.70720
17.9061	17.9128	47	84	387.27893	181.05869	144.87886	134.24610	174.58285	135.01087	174.07108	358.27128	1011.2936	403.48404	317.08505	356.17060	322.56587	312.76746	320.76426	342.68173	343.22568	341.14357	348.09204	332.50477	335.04439	325.31065	102.53486	102.54020	100.67913
17.9128	17.9195	35	86	387.18423	181.01094	144.84096	134.21071	174.53825	134.97548	174.02573	358.17732	1011.0270	403.37781	317.00216	356.10116	322.47150	312.68675	320.68012	342.59412	343.15773	341.03348	348.02732	332.41579	335.00120	325.22531	102.50894	102.51359	100.65085
17.9195	17.9262	29	74	387.10861	180.96868	144.80738	134.17962	174.49767	134.94412	173.98530	358.09445	1010.7937	403.28422	316.92867	356.04125	322.38844	312.61481	320.60544	342.51724	343.10025	340.92894	347.97381	332.33659	334.96633	325.14874	102.48624	102.49023	100.62606
17.9262	17.9329	45	98	387.04702	180.93047	144.77698	134.15170	174.46008	134.91576	173.94852	358.01980	1010.5851	403.19995	316.86213	355.98836	322.31374	312.54936	320.53776	342.44830	343.05049	340.82856	347.92854	332.26463	334.93757	325.07867	102.46592	102.46927	100.60386
17.9329	17.9396	46	67	387.05684	180.89616	144.74948	134.12626	174.42740	134.89010	173.91563	357.95167	1010.3929	403.12310	316.80168	355.94416	322.24650	312.49116	320.47570	342.38481	343.00669	340.73151	347.88865	332.19889	334.91685	325.01500	102.44717	102.45021	100.58315
17.9396	17.9463	31	83	387.09562	180.86342	144.72314	134.10182	174.39670	134.86552	173.88429	357.88615	1010.2074	403.04922	316.74367	355.90345	322.18224	312.43587	320.41587	342.32350	342.96529	340.63575	347.85091	332.13565	334.89938	324.95390	102.42905	102.43192	100.56304
17.9463	17.9530	39	74	387.24917	180.84508	144.70823	134.08791	174.37833	134.85178	173.86639	357.84976	1010.1031	403.00845	316.71109	355.88902	322.14416	312.40555	320.38196	342.28978	342.95083	340.57498	347.84188	332.09985	334.90496	324.91757	102.41934	102.42173	100.55086
17.9530	17.9597	52	95	387.42359	180.82935	144.69539	134.07592	174.36220	134.84001	173.85092	357.81867	1010.0137	402.97370	316.68313	355.87937	322.11082	312.37977	320.35276	342.26105	342.94126	340.52057	347.83805	332.06904	334.91472	324.88574	102.41117	102.41302	100.54012
17.9597	17.9664	41	91	387.65545	180.81361	144.68329	134.06510	174.34781	134.82855	173.83588	357.78763	1009.9247	402.93867	316.65551	355.87226	322.07940	312.35278	320.32418	342.23206	342.93038	340.47121	347.83557	332.03725	334.93165	324.85416	102.40247	102.40449	100.52990
17.9664	17.9731	44	92	387.88464	180.79766	144.67088	134.05397	174.33308	134.81687	173.82065	357.75613	1009.8343	402.90313	316.62745	355.86477	322.04807	312.32558	320.29516	342.20250	342.91922	340.42159	347.83263	332.00510	334.94784	324.82211	102.39366	102.39586	100.51942
17.9731	17.9798	46	82	388.08528	180.77997	144.65591	134.04011	174.31535	134.80345	173.80384	357.72091	1009.7321	402.86348	316.59576	355.85402	322.01699	312.29679	320.26253	342.16851	342.90603	340.36903	347.82584	331.97008	334.95728	324.78620	102.38404	102.38642	100.50680
17.9798	17.9865	31	77	388.26126	180.76174	144.64099	134.02627	174.29738	134.78974	173.78638	357.68471	1009.6291	402.82267	316.56348	355.84244	321.98433	312.26727	320.22917	342.13355	342.89264	340.31605	347.81879	331.93416	334.96531	324.74945	102.37424	102.37671	100.49435
17.9865	17.9932	39	68	388.36282	180.74186	144.62620	134.01250	174.27868	134.77516	173.76697	357.64557	1009.5233	402.77836	316.52943	355.82835	321.94693	312.23558	320.19358	342.09570	342.87866	340.26186	347.81094	331.89556	334.96903	324.71020	102.36385	102.36621	100.48240
17.9932	17.9999	40	93	388.47698	180.72250	144.61092	133.99839	174.26020	134.76070	173.74815	357.60696	1009.4164	402.73493	316.49556	355.81464	321.90732	312.20440	320.15810	342.05841	342.86317	340.20890	347.80208	331.85720	334.97665	324.67121	102.35347	102.35568	100.46995
