# do not edit -- automatically generated Mon Aug 27 17:14:16 2018 from /susfu/kashyap/solar/ISSI/Capella_O7/binned_14t18.pro
# 
# events in wavelength region [14.00,18.00] Ang
# 
# BACKSCAL = 10.0000
#columns are:
#WLOW: wavelength grid bin lower bound [Angstrom]
#WHIGH: wavelength grid bin upper bound [Angstrom]
#SRCCT: counts in bin [ct]
#BKGCT: background counts in bin [ct]
#EA{p|n}_OBSID: effective area for each ObsID [cm^2 ksec]
WLOW	WHIGH	SRCCT	BKGCT	EAp_62435	EAp_01167	EAp_01244	EAp_62410	EAp_01246	EAp_62422	EAp_62423	EAp_01420	EAp_01248	EAp_00058	EAp_01009	EAp_02582	EAp_03479	EAp_03675	EAp_05041	EAp_05956	EAp_06165	EAp_06472	EAp_10600	EAp_11932	EAp_13090	EAp_14240	EAp_18359	EAp_18361	EAp_18363
N	N	N	N	N	N	N	N	N	N	N	N	N	N	N	N	N	N	N	N	N	N	N	N	N	N	N	N	N
14.0000	14.0067	333	93	458.43059	214.72049	171.79587	159.09542	206.90403	160.10300	206.43133	425.51872	1202.6438	477.66327	376.13591	394.66693	377.97984	371.75260	383.40819	407.22101	397.01757	399.10429	384.25456	399.38702	385.51392	388.85448	124.17162	124.06227	123.89018
14.0067	14.0134	412	125	458.42575	214.72158	171.79784	159.09687	206.90486	160.10490	206.43306	425.52625	1202.6857	477.66625	376.14829	394.74586	378.00643	371.76595	383.39877	407.23542	397.07089	399.15422	384.28298	399.39185	385.53085	388.87453	124.17527	124.06638	123.89694
14.0134	14.0201	412	85	458.43774	214.73131	171.80685	159.10521	206.91279	160.11234	206.44284	425.55000	1202.7687	477.68852	376.17373	394.84132	378.04712	371.79319	383.40191	407.26582	397.13545	399.21750	384.32520	399.40748	385.56173	388.90821	124.18403	124.07542	123.90810
14.0201	14.0268	413	101	458.44487	214.73997	171.81240	159.11130	206.92193	160.11770	206.45110	425.57059	1202.8508	477.70560	376.19781	394.92805	378.08396	371.81752	383.40490	407.29247	397.19449	399.27010	384.36517	399.41837	385.59069	388.94012	124.19280	124.08335	123.91827
14.0268	14.0335	445	114	458.44977	214.74813	171.81635	159.11634	206.93163	160.12211	206.45865	425.58971	1202.9325	477.72030	376.22128	395.01077	378.11902	371.84051	383.40783	407.31741	397.25098	399.31779	384.40412	399.42707	385.61876	388.97122	124.20157	124.09076	123.92798
14.0335	14.0402	429	112	458.45566	214.75247	171.82286	159.11994	206.93629	160.12761	206.46470	425.60439	1202.9929	477.73421	376.23501	395.09453	378.15375	371.86020	383.40967	407.33945	397.29813	399.35581	384.43976	399.42264	385.64369	388.99969	124.20706	124.09756	123.93744
14.0402	14.0469	434	91	458.46176	214.75595	171.82992	159.12322	206.93984	160.13335	206.47041	425.61808	1203.0485	477.74795	376.24657	395.17852	378.18841	371.87917	383.41127	407.36085	397.34321	399.39170	384.47466	399.41530	385.66793	389.02757	124.21183	124.10423	123.94684
14.0469	14.0536	370	94	458.47505	214.76441	171.83349	159.13033	206.94533	160.13788	206.47750	425.63676	1203.1157	477.76128	376.24317	395.25460	378.22313	371.90105	383.41320	407.38393	397.38865	399.42760	384.51121	399.40847	385.69357	389.05573	124.21962	124.11136	123.95563
14.0536	14.0603	381	94	458.49041	214.77315	171.83740	159.13746	206.95153	160.14268	206.48484	425.65621	1203.1861	477.77540	376.23915	395.33130	378.25843	371.92354	383.41579	407.40772	397.43459	399.46428	384.54857	399.40384	385.71998	389.08476	124.22771	124.11869	123.96471
14.0603	14.0670	363	107	458.52377	214.78226	171.84686	159.14282	206.96405	160.15078	206.49414	425.68113	1203.2838	477.79798	376.23651	395.41860	378.29973	371.95087	383.42513	407.43812	397.48541	399.50918	384.59349	399.42204	385.75381	389.12263	124.23733	124.12785	123.97712
14.0670	14.0737	333	87	458.55658	214.79186	171.85634	159.14920	206.97520	160.15881	206.50358	425.70599	1203.3799	477.82166	376.23592	395.50742	378.34141	371.97834	383.43501	407.46907	397.53682	399.55391	384.63819	399.43926	385.78770	389.16023	124.24667	124.13698	123.98939
14.0737	14.0804	304	104	458.58741	214.80316	171.86588	159.15909	206.98153	160.16660	206.51352	425.73066	1203.4706	477.84917	376.24256	395.60155	378.38446	372.00628	383.44679	407.50192	397.59026	399.59800	384.68207	399.45297	385.82179	389.19685	124.25502	124.14600	124.00114
14.0804	14.0871	293	102	458.61954	214.81479	171.87467	159.16752	206.99011	160.17456	206.52388	425.75637	1203.5646	477.87464	376.24904	395.69349	378.42777	372.03522	383.45878	407.53443	397.64495	399.64238	384.72656	399.47034	385.85591	389.23382	124.26404	124.15544	124.01304
14.0871	14.0938	259	109	458.65402	214.82701	171.88212	159.17328	207.00278	160.18284	206.53500	425.78397	1203.6644	477.89641	376.25524	395.78150	378.47158	372.06598	383.47115	407.56632	397.70191	399.68728	384.77218	399.49432	385.89008	389.27141	124.27426	124.16565	124.02521
14.0938	14.1005	246	98	458.69258	214.84028	171.89241	159.18204	207.01486	160.19285	206.54784	425.81592	1203.7701	477.92465	376.27053	395.87208	378.51852	372.09935	383.48660	407.60296	397.76430	399.73621	384.82165	399.52102	385.92818	389.31305	124.28552	124.17739	124.03885
14.1005	14.1072	290	119	458.73541	214.85465	171.90566	159.19394	207.02632	160.20465	206.56246	425.85239	1203.8820	477.95963	376.29529	395.96535	378.56872	372.13543	383.50525	407.64457	397.83235	399.78934	384.87512	399.55055	385.97037	389.35890	124.29786	124.19069	124.05403
14.1072	14.1139	296	110	458.71714	214.84181	171.89466	159.18274	207.01008	160.19523	206.54888	425.83054	1203.8360	477.93110	376.26632	396.01112	378.56980	372.12189	383.47650	407.63054	397.84655	399.78956	384.87682	399.52682	385.96089	389.35268	124.29390	124.18657	124.05191
14.1139	14.1206	314	94	458.66211	214.81258	171.86905	159.15764	206.97716	160.17303	206.51832	425.77360	1203.6950	477.86434	376.20501	396.02829	378.54133	372.07848	383.41922	407.58304	397.82834	399.75796	384.84737	399.47104	385.92033	389.31511	124.28014	124.17195	124.03937
14.1206	14.1273	295	99	458.60640	214.78231	171.84426	159.13493	206.94073	160.14973	206.48772	425.71679	1203.5497	477.79548	376.14844	396.03741	378.51086	372.03708	383.35589	407.53597	397.80964	399.72637	384.81821	399.41845	385.88050	389.27793	124.26584	124.15720	124.02817
14.1273	14.1340	320	104	458.55048	214.75172	171.81973	159.11298	206.90319	160.12609	206.45711	425.66003	1203.4030	477.72594	376.09336	396.04397	378.47975	371.99631	383.29064	407.48904	397.79078	399.69478	384.78915	399.36687	385.84089	389.24088	124.25138	124.14240	124.01739
14.1340	14.1407	371	114	458.49579	214.72083	171.79380	159.08256	206.86816	160.10395	206.42819	425.60274	1203.2503	477.66022	376.03477	396.05954	378.45031	371.95295	383.23305	407.44205	397.77335	399.66361	384.75999	399.31664	385.79970	389.20327	124.23705	124.12820	124.00479
14.1407	14.1474	426	113	458.44121	214.68986	171.76768	159.05126	206.83359	160.08186	206.39932	425.54532	1203.0956	477.59480	375.97582	396.07591	378.42102	371.90925	383.17616	407.39500	397.75603	399.63237	384.73077	399.26650	385.75829	389.16557	124.22272	124.11408	123.99200
14.1474	14.1541	550	110	458.38501	214.65741	171.74077	159.02444	206.80446	160.05520	206.36497	425.48585	1202.8947	477.52384	375.91887	396.08295	378.39012	371.86431	383.11176	407.34641	397.73682	399.59750	384.69972	399.21372	385.71624	389.12669	124.20776	124.10009	123.98048
14.1541	14.1608	677	115	458.32846	214.62515	171.71303	158.99848	206.77553	160.02913	206.33053	425.42533	1202.6910	477.45283	375.86212	396.09085	378.35910	371.81947	383.04780	407.29772	397.71734	399.56282	384.66865	399.16140	385.67417	389.08772	124.19279	124.08596	123.96872
14.1608	14.1675	937	121	458.27012	214.59395	171.68095	158.97699	206.74753	160.00614	206.29552	425.35940	1202.4730	477.38149	375.80643	396.10332	378.32751	371.77517	382.98613	407.24860	397.69648	399.52914	384.63752	399.11149	385.63197	389.04825	124.17780	124.07116	123.95574
14.1675	14.1742	1275	145	458.21667	214.56329	171.65045	158.95730	206.72251	159.98313	206.26182	425.29669	1202.2612	477.31422	375.75383	396.11849	378.29910	371.73438	382.92810	407.20311	397.67933	399.49861	384.60979	399.06385	385.59312	389.01234	124.16418	124.05706	123.94414
14.1742	14.1809	1464	158	458.17487	214.53392	171.62372	158.94187	206.70452	159.96003	206.23121	425.24164	1202.0643	477.25657	375.70858	396.14006	378.27825	371.70193	382.87875	407.16628	397.67097	399.47559	384.59016	399.02161	385.56221	388.98490	124.15385	124.04462	123.93585
14.1809	14.1876	1703	139	458.13172	214.50538	171.59970	158.92620	206.68537	159.93549	206.20157	425.18781	1201.8661	477.19833	375.66299	396.16276	378.25783	371.66817	382.82819	407.12929	397.66303	399.45312	384.57053	398.98111	385.53150	388.95726	124.14289	124.03316	123.92734
14.1876	14.1943	1585	151	458.08682	214.47796	171.57927	158.91021	206.66470	159.90903	206.17323	425.13560	1201.6664	477.13934	375.61697	396.18693	378.23798	371.63266	382.77606	407.09209	397.65565	399.43137	384.55089	398.94293	385.50108	388.92933	124.13111	124.02301	123.91855
14.1943	14.2010	1443	138	458.04292	214.44928	171.56097	158.89507	206.64426	159.88602	206.14930	425.08256	1201.4984	477.07751	375.57301	396.21156	378.21742	371.59890	382.72412	407.05537	397.64773	399.40932	384.53127	398.90429	385.47030	388.90182	124.11979	124.01222	123.90971
14.2010	14.2077	1308	138	457.99979	214.41964	171.54430	158.88057	206.62401	159.86568	206.12877	425.02887	1201.3549	477.01349	375.53064	396.23655	378.19632	371.56649	382.67232	407.01899	397.63939	399.38701	384.51168	398.86528	385.43925	388.87462	124.10881	124.00093	123.90083
14.2077	14.2144	1124	109	457.95657	214.38929	171.52757	158.86500	206.60545	159.84746	206.10847	424.97577	1201.1905	476.94829	375.48715	396.26106	378.17695	371.53509	382.62274	406.98195	397.63160	399.36606	384.49234	398.82710	385.40855	388.84762	124.09730	123.98970	123.89244
14.2144	14.2211	888	98	457.91330	214.35864	171.51083	158.84897	206.58764	159.83015	206.08828	424.92293	1201.0171	476.88259	375.44317	396.28535	378.15833	371.50413	382.57411	406.94461	397.62406	399.34569	384.47312	398.78928	385.37800	388.82070	124.08557	123.97850	123.88426
14.2211	14.2278	858	101	457.89405	214.34248	171.50423	158.84273	206.57630	159.82289	206.07926	424.89094	1200.9110	476.84084	375.41813	396.32927	378.15844	371.48730	382.54183	406.92871	397.63704	399.34393	384.47264	398.77292	385.36704	388.81322	124.08066	123.97375	123.88183
14.2278	14.2345	842	116	457.87960	214.32922	171.49967	158.83845	206.56625	159.81764	206.07247	424.86312	1200.8183	476.80388	375.39689	396.37713	378.16230	371.47330	382.51281	406.91708	397.65412	399.34589	384.47591	398.76085	385.36000	388.80963	124.07712	123.97028	123.88054
14.2345	14.2412	828	116	457.86294	214.32129	171.49262	158.83210	206.56190	159.81277	206.06600	424.83475	1200.7581	476.77113	375.37721	396.41193	378.16358	371.46464	382.48619	406.90170	397.67016	399.34768	384.48013	398.74804	385.35158	388.80602	124.07448	123.96631	123.87945
14.2412	14.2479	703	106	457.84642	214.31341	171.48565	158.82583	206.55714	159.80771	206.05929	424.80667	1200.6967	476.73974	375.35736	396.44697	378.16506	371.45580	382.45912	406.88542	397.68625	399.34960	384.48425	398.73508	385.34323	388.80232	124.07173	123.96243	123.87835
14.2479	14.2546	673	111	457.83180	214.30448	171.48011	158.82083	206.54721	159.80081	206.05053	424.78139	1200.6155	476.71912	375.33558	396.48788	378.16912	371.44373	382.42738	406.86243	397.70308	399.35266	384.48728	398.72108	385.33593	388.79792	124.06773	123.95943	123.87702
14.2546	14.2613	536	113	457.81689	214.29598	171.47442	158.81591	206.53866	159.79434	206.04241	424.75586	1200.5391	476.69945	375.31394	396.52711	378.17296	371.43164	382.39607	406.83609	397.71988	399.35520	384.49059	398.70815	385.32865	388.79376	124.06373	123.95630	123.87581
14.2613	14.2680	413	100	457.80110	214.28893	171.46823	158.81127	206.53456	159.78924	206.03642	424.72955	1200.4786	476.68286	375.29277	396.56091	378.17610	371.41949	382.36614	406.79893	397.73658	399.35607	384.49482	398.69874	385.32149	388.79043	124.05972	123.95277	123.87502
14.2680	14.2747	362	112	457.78518	214.28157	171.46215	158.80545	206.52842	159.78368	206.02987	424.70438	1200.4083	476.66563	375.27184	396.59338	378.17918	371.40825	382.33473	406.76125	397.75303	399.35745	384.49888	398.68785	385.31378	388.78676	124.05588	123.94908	123.87411
14.2747	14.2814	321	104	457.76905	214.27367	171.45623	158.79762	206.51878	159.77733	206.02238	424.68113	1200.3212	476.64728	375.25129	396.62358	378.18214	371.39852	382.30079	406.72267	397.76907	399.35968	384.50264	398.67446	385.30514	388.78252	124.05232	123.94512	123.87303
14.2814	14.2881	303	99	457.74803	214.26322	171.44849	158.78989	206.50886	159.76956	206.01250	424.65249	1200.2277	476.62418	375.22691	396.64998	378.18108	371.38359	382.26619	406.67790	397.78088	399.35724	384.50165	398.65749	385.29270	388.77398	124.04704	123.93968	123.87048
14.2881	14.2948	264	94	457.72223	214.25026	171.43899	158.78224	206.49867	159.76040	206.00026	424.61855	1200.1278	476.59644	375.19876	396.67265	378.17608	371.36356	382.23094	406.62706	397.78856	399.35022	384.49598	398.63701	385.27654	388.76122	124.04007	123.93279	123.86650
14.2948	14.3015	278	89	457.71699	214.24844	171.43697	158.78002	206.49609	159.75880	205.99795	424.60782	1200.0969	476.59100	375.18617	396.71850	378.18749	371.36085	382.21432	406.59980	397.81423	399.36231	384.50888	398.63699	385.27764	388.76711	124.03952	123.93223	123.86833
14.3015	14.3082	283	108	457.72336	214.25290	171.43918	158.78087	206.49781	159.76146	206.00124	424.61020	1200.1048	476.59816	375.18237	396.77744	378.20816	371.36792	382.20821	406.58585	397.85005	399.38518	384.53227	398.64853	385.28849	388.78352	124.04258	123.93523	123.87343
14.3082	14.3149	326	88	457.73159	214.25492	171.44337	158.78447	206.50188	159.76429	206.00447	424.61098	1200.1002	476.60529	375.18097	396.82837	378.22998	371.37268	382.20597	406.57446	397.88743	399.40813	384.55612	398.65793	385.30045	388.80020	124.04560	123.93842	123.87894
14.3149	14.3216	359	116	457.74036	214.25624	171.44814	158.78889	206.50665	159.76716	206.00769	424.61131	1200.0918	476.61241	375.18027	396.87695	378.25214	371.37676	382.20487	406.56383	397.92527	399.43109	384.58010	398.66671	385.31273	388.81696	124.04862	123.94166	123.88456
14.3216	14.3283	449	94	457.74832	214.26221	171.45018	158.79034	206.51002	159.77013	206.01187	424.61475	1200.0890	476.62172	375.17998	396.93367	378.27404	371.36379	382.20050	406.55701	397.96078	399.45494	384.60408	398.67970	385.32462	388.83331	124.05176	123.94404	123.88969
14.3283	14.3350	521	101	457.75888	214.26968	171.45304	158.79252	206.51447	159.77400	206.01728	424.62083	1200.0933	476.63391	375.18170	396.99315	378.29808	371.35078	382.19816	406.55295	397.99815	399.48112	384.63025	398.69532	385.33866	388.85184	124.05557	123.94703	123.89551
14.3350	14.3417	610	105	457.83057	214.30037	171.48078	158.81802	206.54679	159.79825	206.04863	424.67937	1200.2492	476.70661	375.22818	397.09710	378.37171	371.37641	382.24966	406.60327	398.08314	399.55829	384.70620	398.76104	385.40289	388.92109	124.07438	123.96622	123.91815
14.3417	14.3484	717	122	457.90623	214.33389	171.50982	158.84472	206.58100	159.82415	206.08208	424.74253	1200.4171	476.78441	375.27910	397.20530	378.44886	371.40711	382.30415	406.65762	398.17221	399.63945	384.78604	398.83078	385.47115	388.99434	124.09470	123.98635	123.94193
14.3484	14.3551	738	118	458.00051	214.38063	171.54488	158.87698	206.62406	159.85783	206.12540	424.82724	1200.6408	476.88611	375.35085	397.33351	378.54250	371.46144	382.37263	406.73085	398.28033	399.73933	384.88411	398.91940	385.55825	389.08625	124.12203	124.01084	123.97102
14.3551	14.3618	759	106	458.09408	214.42523	171.57986	158.90950	206.66663	159.89075	206.16798	424.91123	1200.8646	476.98504	375.41842	397.46031	378.63613	371.51631	382.44168	406.80271	398.38724	399.83762	384.98069	399.00815	385.64330	389.17664	124.14879	124.03397	123.99965
14.3618	14.3685	698	118	458.18601	214.46507	171.61469	158.94257	206.70810	159.92197	206.20894	424.99356	1201.0888	477.07779	375.47666	397.58398	378.72973	371.57237	382.51197	406.87151	398.49146	399.93236	385.07395	399.09716	385.72376	389.26358	124.17426	124.05408	124.02721
14.3685	14.3752	614	136	458.27491	214.50583	171.64782	158.97351	206.74834	159.95309	206.24858	425.07339	1201.3006	477.16952	375.53602	397.70543	378.82022	371.62683	382.57800	406.93910	398.59580	400.02560	385.16813	399.18316	385.80318	389.34832	124.19883	124.07108	124.05440
14.3752	14.3819	581	105	458.36006	214.54774	171.67882	159.00178	206.78706	159.98409	206.28658	425.15011	1201.4970	477.25999	375.59677	397.82414	378.90684	371.67930	382.63874	407.00518	398.70031	400.11699	385.26349	399.26545	385.88130	389.43032	124.22227	124.08424	124.08113
14.3819	14.3886	526	114	458.44533	214.58785	171.71130	159.03171	206.82512	160.01370	206.32530	425.22605	1201.6942	477.34786	375.65215	397.94504	378.99338	371.73612	382.70129	407.07276	398.80500	400.20744	385.36661	399.34573	385.95808	389.51301	124.24621	124.10075	124.10743
14.3886	14.3953	465	92	458.53069	214.62665	171.74485	159.06283	206.86269	160.04230	206.36453	425.30142	1201.8918	477.43383	375.70363	398.06751	379.07987	371.79609	382.76515	407.14142	398.90982	400.29721	385.47535	399.42455	386.03386	389.59618	124.27049	124.11970	124.13341
14.3953	14.4020	473	115	458.61993	214.66813	171.77774	159.09275	206.90295	160.07320	206.40364	425.37760	1202.0940	477.52551	375.75840	398.19064	379.16978	371.85398	382.82957	407.20890	399.01668	400.39155	385.61414	399.50611	386.11305	389.68067	124.29478	124.13627	124.16054
14.4020	14.4087	482	122	458.71074	214.71067	171.81036	159.12218	206.94429	160.10502	206.44272	425.45412	1202.2980	477.61947	375.81448	398.31403	379.26107	371.91104	382.89422	407.27590	399.12437	400.48772	385.76500	399.58879	386.19361	389.76569	124.31908	124.15189	124.18812
14.4087	14.4154	427	94	458.80699	214.75590	171.84791	159.15722	206.98688	160.13912	206.48787	425.54323	1202.5251	477.72168	375.88465	398.44433	379.35846	371.97786	382.96740	407.35548	399.23876	400.59007	385.94965	399.67393	386.28168	389.85882	124.34664	124.17330	124.21647
14.4154	14.4221	400	118	458.90420	214.80160	171.88633	159.19326	207.02969	160.17361	206.53409	425.63459	1202.7563	477.82536	375.95733	398.57584	379.45692	372.04643	383.04209	407.43730	399.35433	400.69350	386.14032	399.75949	386.37108	389.95340	124.37477	124.19575	124.24495
14.4221	14.4288	378	95	459.02162	214.85728	171.92885	159.23177	207.08538	160.21428	206.58588	425.73856	1203.0465	477.94627	376.04633	398.72403	379.57112	372.13187	383.13224	407.53133	399.48598	400.81211	386.36167	399.86307	386.47344	390.06236	124.40684	124.22405	124.27645
14.4288	14.4355	387	110	459.13912	214.91273	171.97171	159.27070	207.14075	160.25509	206.63788	425.84262	1203.3357	478.06758	376.13627	398.87221	379.68573	372.21759	383.22233	407.62572	399.61790	400.93089	386.58468	399.96672	386.57650	390.17154	124.43896	124.25220	124.30755
14.4355	14.4422	358	114	459.25435	214.96497	172.01664	159.31243	207.19183	160.29612	206.69062	425.94556	1203.6095	478.18941	376.23100	399.01784	379.80130	372.30310	383.30972	407.72116	399.74940	401.04877	386.81570	400.06836	386.68292	390.28027	124.47087	124.27837	124.33515
14.4422	14.4489	348	98	459.37018	215.01827	172.06093	159.35369	207.24377	160.33714	206.74309	426.04879	1203.8800	478.31133	376.32593	399.16366	379.91650	372.38848	383.39807	407.81625	399.88074	401.16662	387.05257	400.17007	386.78945	390.38916	124.50293	124.30504	124.36341
14.4489	14.4556	316	118	459.48781	215.07476	172.10339	159.39357	207.29826	160.37817	206.79472	426.15290	1204.1408	478.43355	376.42146	399.31011	380.03066	372.47350	383.48933	407.91037	400.01168	401.28439	387.30702	400.27200	386.89631	390.49857	124.53545	124.33325	124.39364
14.4556	14.4623	318	108	459.60461	215.13005	172.14673	159.43346	207.35126	160.41876	206.84685	426.25731	1204.4084	478.55491	376.51659	399.45652	380.14435	372.55916	383.57876	408.00460	400.14283	401.40246	387.54191	400.37419	387.00413	390.60751	124.56672	124.36075	124.42143
14.4623	14.4690	331	132	459.72008	215.18341	172.19149	159.47332	207.40184	160.45865	206.89977	426.36215	1204.6866	478.67485	376.61106	399.60283	380.25727	372.64580	383.66523	408.09898	400.27431	401.52097	387.74549	400.47677	387.11345	390.71564	124.59598	124.38714	124.44533
14.4690	14.4757	329	102	459.83591	215.23748	172.23519	159.51362	207.45412	160.49923	206.95183	426.46607	1204.9541	478.79636	376.70566	399.75000	380.37252	372.73225	383.75423	408.19342	400.40569	401.63950	387.94040	400.57947	387.22331	390.82428	124.62462	124.41543	124.46704
14.4757	14.4824	301	94	459.95209	215.29220	172.27793	159.55433	207.50797	160.54044	207.00309	426.56912	1205.2118	478.91931	376.80037	399.89798	380.48994	372.81853	383.84558	408.28795	400.53700	401.75806	388.12732	400.68230	387.33370	390.93341	124.65267	124.44549	124.48675
14.4824	14.4891	330	90	460.11917	215.37078	172.34093	159.61244	207.58330	160.59819	207.07907	426.72007	1205.6145	479.09335	376.93656	400.09198	380.64853	372.94445	383.97816	408.42802	400.71334	401.92173	388.35805	400.82858	387.48552	391.08573	124.69371	124.48800	124.52711
14.4891	14.4958	374	112	460.31316	215.46197	172.41463	159.67974	207.66998	160.66466	207.16811	426.89634	1206.0938	479.29439	377.09468	400.31030	380.82888	373.09132	384.13255	408.59219	400.91349	402.10925	388.61193	400.99783	387.65924	391.26087	124.74162	124.53708	124.57839
14.4958	14.5025	430	96	460.51861	215.55921	172.49228	159.75170	207.76260	160.73794	207.26102	427.08165	1206.5818	479.50933	377.26371	400.53194	381.01787	373.25215	384.29583	408.76826	401.12261	402.30744	388.87181	401.17920	387.84204	391.44486	124.79320	124.58983	124.62957
14.5025	14.5092	529	113	460.72716	215.65809	172.57099	159.82493	207.85682	160.81305	207.35499	427.26941	1207.0723	479.72803	377.43571	400.75450	381.20921	373.41674	384.46153	408.94755	401.33417	402.50851	389.13335	401.36386	388.02731	391.63124	124.84578	124.64357	124.68073
14.5092	14.5159	634	95	460.93737	215.75563	172.64808	159.89718	207.95185	160.88464	207.44935	427.45645	1207.5625	479.94563	377.60618	400.98470	381.40098	373.57886	384.62964	409.12333	401.54759	402.70792	389.38867	401.54666	388.21187	391.81381	124.89596	124.69748	124.73623
14.5159	14.5226	619	115	461.14748	215.85303	172.72518	159.96934	208.04683	160.95609	207.54365	427.64339	1208.0550	480.16312	377.77665	401.21502	381.59278	373.74062	384.79770	409.29879	401.76098	402.90720	389.64297	401.72927	388.39631	391.99567	124.94610	124.75147	124.79187
14.5226	14.5293	704	108	461.35407	215.95005	172.80467	160.04175	208.14004	161.03027	207.63663	427.83004	1208.5876	480.38088	377.94958	401.43728	381.78503	373.90008	384.96180	409.47410	401.97163	403.10719	389.88986	401.91165	388.58036	392.17160	124.99901	124.80674	124.84390
14.5293	14.5360	648	112	461.56096	216.04737	172.88366	160.11422	208.23350	161.10395	207.72989	428.01748	1209.1211	480.59833	378.12183	401.66088	381.97763	374.05955	385.12651	409.64974	402.18276	403.30701	390.13782	402.09434	388.76412	392.34655	125.05145	124.86149	124.89718
14.5360	14.5427	549	99	461.76899	216.14594	172.96046	160.18689	208.32797	161.17546	207.82427	428.20809	1209.6580	480.81432	378.29104	401.89001	382.17160	374.21893	385.29372	409.82667	402.39584	403.50603	390.39011	402.27826	388.94663	392.51725	125.10189	124.91401	124.95572
14.5427	14.5494	508	123	461.97519	216.24334	173.03757	160.25876	208.42210	161.24723	207.91750	428.39773	1210.1949	481.02946	378.45971	402.11667	382.36460	374.37939	385.45940	410.00183	402.60740	403.70424	390.63946	402.46032	389.12745	392.68356	125.15215	124.96690	125.01169
14.5494	14.5561	465	110	462.17766	216.33832	173.11537	160.32899	208.51560	161.31958	208.00839	428.58538	1210.7321	481.24291	378.62728	402.33826	382.55564	374.54213	385.62197	410.17337	402.81591	403.90087	390.88280	402.63857	389.30485	392.84081	125.20201	125.02057	125.06240
14.5561	14.5628	377	109	462.37856	216.43270	173.19174	160.39896	208.60603	161.39028	208.09906	428.77072	1211.2557	481.45331	378.79257	402.55973	382.74393	374.69954	385.78245	410.34109	403.01876	404.09456	391.11960	402.81551	389.48077	392.99213	125.25207	125.07324	125.11497
14.5628	14.5695	351	109	462.57756	216.52636	173.26643	160.46859	208.69284	161.45902	208.18945	428.95331	1211.7633	481.66007	378.95514	402.78104	382.92896	374.85068	385.94045	410.50432	403.21492	404.28479	391.34869	402.99089	389.65493	393.13645	125.30234	125.12472	125.16973
14.5695	14.5762	332	87	462.77542	216.61926	173.34027	160.53739	208.78268	161.52804	208.27916	429.13522	1212.2792	481.86608	379.11772	403.00042	383.11564	375.00227	386.09760	410.66753	403.40309	404.47569	391.58492	403.16601	389.82908	393.28012	125.35274	125.17574	125.22312
14.5762	14.5829	306	105	462.97251	216.71165	173.41354	160.60565	208.87460	161.59727	208.36840	429.31668	1212.8008	482.07160	379.28033	403.21851	383.30345	375.15416	386.25419	410.83076	403.58581	404.66709	391.82606	403.34097	390.00325	393.42335	125.40324	125.22645	125.27558
14.5829	14.5896	308	105	463.16956	216.80498	173.48725	160.67435	208.96198	161.66657	208.45629	429.49943	1213.3213	482.27804	379.44190	403.43557	383.49140	375.30523	386.41081	410.99098	403.76630	404.85727	392.05896	403.51412	390.17578	393.57406	125.45264	125.27769	125.32840
14.5896	14.5963	249	110	463.36655	216.89864	173.56111	160.74319	209.04764	161.73590	208.54366	429.68262	1213.8414	482.48479	379.60305	403.65220	383.67936	375.45597	386.56741	411.15005	403.94591	405.04696	392.28874	403.68656	390.34765	393.72753	125.50161	125.32912	125.38135
14.5963	14.6030	259	101	463.55992	216.98990	173.63423	160.81117	209.13823	161.80421	208.63287	429.86178	1214.3561	482.68896	379.76320	403.86938	383.86646	375.60835	386.72505	411.30275	404.11729	405.23445	392.52053	403.85875	390.51710	393.88323	125.55012	125.37963	125.43378
14.6030	14.6097	252	98	463.75274	217.08079	173.70724	160.87901	209.22962	161.87236	208.72239	430.04031	1214.8701	482.89273	379.92322	404.08668	384.05345	375.76102	386.88287	411.45445	404.28738	405.42163	392.75266	404.03093	390.68620	394.03931	125.59856	125.43000	125.48614
14.6097	14.6164	226	98	463.93567	217.16929	173.77760	160.94304	209.31201	161.93811	208.80493	430.21518	1215.3653	483.08852	380.07721	404.30060	384.23695	375.90230	387.03552	411.60735	404.44647	405.60588	392.97260	404.19741	390.84993	394.19046	125.64679	125.47815	125.53718
14.6164	14.6231	272	101	464.11935	217.25819	173.84858	161.00793	209.39557	162.00433	208.88860	430.39108	1215.8623	483.28570	380.23249	404.51434	384.42226	376.04487	387.19002	411.76219	404.60699	405.79142	393.19345	404.36488	391.01481	394.34335	125.69542	125.52679	125.58865
14.6231	14.6298	286	103	464.30839	217.34982	173.92383	161.07860	209.48714	162.07371	208.97994	430.57403	1216.3728	483.49237	380.39656	404.72713	384.61983	376.19629	387.35707	411.93007	404.77741	405.98569	393.42076	404.53926	391.18748	394.50805	125.74673	125.57868	125.64298
14.6298	14.6365	297	107	464.48618	217.43709	173.99446	161.14433	209.57294	162.13918	209.06578	430.74724	1216.8586	483.68781	380.55146	404.93249	384.80883	376.33955	387.51298	412.08941	404.94117	406.17034	393.64109	404.70477	391.35065	394.66303	125.79551	125.62749	125.69452
14.6365	14.6432	311	103	464.63282	217.51233	174.05229	161.19636	209.64273	162.19382	209.13634	430.89343	1217.2762	483.85213	380.68089	405.11727	384.97409	376.46017	387.63803	412.22511	405.08644	406.32833	393.84202	404.84571	391.48749	394.79107	125.83727	125.66773	125.73831
14.6432	14.6499	343	95	464.77180	217.58277	174.10839	161.24753	209.70965	162.24596	209.20325	431.03187	1217.6731	484.00819	380.80419	405.29652	385.14029	376.57176	387.75939	412.35568	405.22529	406.47979	394.03296	404.97906	391.61750	394.91429	125.87605	125.70537	125.77965
14.6499	14.6566	341	105	464.89929	217.64603	174.16191	161.29743	209.77225	162.29434	209.26470	431.15871	1218.0392	484.15189	380.91831	405.46753	385.30797	376.66980	387.87523	412.47857	405.35454	406.62149	394.20896	405.10105	391.73729	395.03032	125.91036	125.73913	125.81731
14.6566	14.6633	312	107	465.02775	217.71131	174.21309	161.34516	209.83538	162.34261	209.32718	431.28637	1218.4029	484.29608	381.03124	405.63355	385.46967	376.76585	387.98823	412.60128	405.48565	406.76324	394.38942	405.22434	391.85759	395.14502	125.94447	125.77289	125.85509
14.6633	14.6700	295	84	465.15700	217.77833	174.26222	161.39097	209.89895	162.39076	209.39052	431.41471	1218.7645	484.44067	381.14309	405.79520	385.62613	376.86014	388.09872	412.72380	405.61834	406.90501	394.57371	405.34874	391.97829	395.25854	125.97839	125.80665	125.89294
14.6700	14.6767	249	78	465.28578	217.84170	174.31426	161.43928	209.95970	162.43878	209.45205	431.54218	1219.1281	484.58321	381.25539	405.96270	385.77006	376.95052	388.21159	412.84562	405.74938	407.04620	394.75202	405.47163	392.09625	395.37352	126.01288	125.84068	125.93165
14.6767	14.6834	245	92	465.41433	217.90328	174.36776	161.48884	210.01905	162.48675	209.51269	431.66923	1219.4926	484.72476	381.36791	406.13312	385.90779	377.03898	388.32565	412.96713	405.87962	407.18712	394.92738	405.59381	392.21287	395.48924	126.04767	125.87486	125.97080
14.6834	14.6901	224	86	465.53724	217.96587	174.41469	161.53296	210.07863	162.53282	209.57168	431.79097	1219.8281	484.86225	381.47554	406.28996	386.03203	377.13360	388.43034	413.08226	406.00443	407.32252	395.09571	405.70883	392.32597	395.59885	126.07991	125.90603	126.00652
14.6901	14.6968	242	99	465.65875	218.02870	174.46000	161.57575	210.13826	162.57842	209.63025	431.91140	1220.1564	484.99873	381.58195	406.44345	386.15293	377.22972	388.53272	413.19581	406.12789	407.45653	395.26230	405.82208	392.43819	395.70694	126.11153	125.93645	126.04139
14.6968	14.7035	243	103	465.76841	218.08038	174.50530	161.61662	210.18875	162.61737	209.68178	432.01743	1220.4638	485.11802	381.67684	406.59623	386.26232	377.32181	388.62907	413.29841	406.24404	407.57987	395.41904	405.92578	392.53696	395.80356	126.14053	125.96294	126.07505
14.7035	14.7102	240	98	465.87544	218.13084	174.54971	161.65658	210.23804	162.65547	209.73212	432.12109	1220.7654	485.23463	381.76954	406.74655	386.36952	377.41218	388.72331	413.39889	406.35837	407.70092	395.57425	406.02738	392.63345	395.89814	126.16897	125.98870	126.10800
14.7102	14.7169	238	103	465.95851	218.17517	174.58266	161.68631	210.27960	162.68829	209.77315	432.20631	1221.0082	485.33121	381.84357	406.86519	386.45801	377.48368	388.79511	413.48134	406.45525	407.80125	395.71781	406.10988	392.71177	395.97613	126.19229	126.00836	126.13259
14.7169	14.7236	245	92	466.04178	218.21879	174.61591	161.71644	210.32045	162.72069	209.81410	432.29108	1221.2502	485.42670	381.91787	406.98612	386.54646	377.55630	388.86754	413.56343	406.55137	407.90188	395.86123	406.19223	392.78981	396.05397	126.21533	126.02824	126.15763
14.7236	14.7303	262	113	466.12583	218.25977	174.65036	161.74814	210.35854	162.75145	209.85480	432.37410	1221.4888	485.51806	381.99319	407.11599	386.63482	377.63330	388.94242	413.64418	406.64465	408.00371	396.00420	406.27403	392.86684	396.13127	126.23731	126.04898	126.18446
14.7303	14.7370	282	119	466.20998	218.30141	174.68432	161.77878	210.39545	162.78264	209.89540	432.45772	1221.7271	485.61114	382.06843	407.24376	386.72338	377.70843	389.01644	413.72471	406.73958	408.10556	396.14736	406.35617	392.94261	396.20892	126.25948	126.07063	126.21088
14.7370	14.7437	245	109	466.29429	218.34433	174.71729	161.80737	210.43005	162.81467	209.93581	432.54245	1221.9647	485.70755	382.14345	407.36742	386.81231	377.77989	389.08877	413.80477	406.83765	408.20743	396.29086	406.43892	393.01593	396.28721	126.28201	126.09403	126.23654
14.7437	14.7504	248	87	466.37743	218.38719	174.75042	161.83592	210.46400	162.84624	209.97580	432.62674	1222.2015	485.80217	382.21897	407.49079	386.90078	377.85203	389.16140	413.88574	406.93517	408.31018	396.43070	406.52050	393.09022	396.36576	126.30375	126.11686	126.26241
14.7504	14.7571	209	92	466.45930	218.42999	174.78372	161.86444	210.49723	162.87729	210.01533	432.71056	1222.4376	485.89482	382.29504	407.61384	386.98876	377.92493	389.23435	413.96771	407.03207	408.41394	396.56651	406.60079	393.16561	396.44460	126.32462	126.13905	126.28854
14.7571	14.7638	226	107	466.52470	218.46337	174.80868	161.88483	210.52529	162.90186	210.04555	432.77651	1222.6283	485.96796	382.35328	407.72357	387.06135	377.98416	389.29172	414.03164	407.11242	408.49931	396.69186	406.66505	393.22217	396.50796	126.34112	126.15683	126.31071
14.7638	14.7705	176	97	466.57951	218.49070	174.82828	161.89999	210.55001	162.92227	210.06979	432.83096	1222.7897	486.02856	382.40005	407.82473	387.12402	378.03459	389.33905	414.08397	407.18211	408.57284	396.81047	406.71899	393.26662	396.56136	126.35482	126.17177	126.33033
14.7705	14.7772	178	106	466.63216	218.51885	174.84882	161.91822	210.57425	162.94303	210.09354	432.88763	1222.9543	486.09236	382.45017	407.92612	387.18871	378.08375	389.38679	414.13798	407.25555	408.64969	396.92396	406.77580	393.30911	396.61520	126.36773	126.18815	126.34837
14.7772	14.7839	185	114	466.68406	218.54729	174.86968	161.93752	210.59831	162.96391	210.11714	432.94508	1223.1200	486.15727	382.50146	408.02760	387.25412	378.13247	389.43469	414.19256	407.33029	408.72770	397.03569	406.83361	393.35092	396.66922	126.38037	126.20502	126.36587
14.7839	14.7906	204	100	466.73838	218.57370	174.88686	161.95347	210.62350	162.98077	210.13737	432.99854	1223.2732	486.21900	382.55117	408.12506	387.31636	378.18050	389.48230	414.24735	407.40276	408.80347	397.14499	406.88799	393.39061	396.72365	126.39425	126.22142	126.38618
14.7906	14.7973	165	88	466.79159	218.59914	174.90301	161.96853	210.64818	162.99658	210.15655	433.05017	1223.4210	486.27881	382.59950	408.22079	387.37701	378.22731	389.52867	414.30090	407.47368	408.87771	397.25259	406.94070	393.42878	396.77693	126.40789	126.23737	126.40646
14.7973	14.8040	207	118	466.72319	218.56708	174.87699	161.94707	210.61589	162.97084	210.12629	432.99510	1223.2654	486.21476	382.55111	408.21857	387.34103	378.18013	389.47391	414.24771	407.44197	408.85010	397.24774	406.89278	393.36334	396.72911	126.38707	126.22136	126.39143
14.8040	14.8107	187	92	466.65360	218.53468	174.85051	161.92490	210.58373	162.94517	210.09530	432.93868	1223.1072	486.14923	382.50152	408.21496	387.30439	378.13175	389.41953	414.19371	407.40964	408.82190	397.24271	406.84355	393.29747	396.68062	126.36590	126.20483	126.37624
14.8107	14.8174	191	86	466.57710	218.50032	174.82137	161.89863	210.55238	162.91997	210.06009	432.87437	1222.9348	486.07504	382.44499	408.20317	387.26388	378.07638	389.36745	414.13501	407.37371	408.79025	397.23663	406.78673	393.22919	396.62834	126.34263	126.18530	126.36020
14.8174	14.8241	170	80	466.49907	218.46474	174.79239	161.87198	210.51923	162.89352	210.02480	432.80934	1222.7594	485.99667	382.38818	408.19295	387.22278	378.02018	389.31367	414.07528	407.33689	408.75800	397.22908	406.72897	393.16352	396.57519	126.31947	126.16615	126.34398
14.8241	14.8308	194	94	466.41703	218.42601	174.76382	161.84433	210.48145	162.86384	209.98929	432.74238	1222.5765	485.90747	382.33062	408.18679	387.18010	377.96179	389.25550	414.01284	407.29774	408.72420	397.21775	406.66871	393.10452	396.51975	126.29653	126.14796	126.32732
14.8308	14.8375	152	97	466.33137	218.38510	174.73251	161.81555	210.44274	162.83404	209.95221	432.66925	1222.3802	485.81432	382.26875	408.17018	387.13289	377.90040	389.19442	413.94551	407.25375	408.68594	397.20221	406.60475	393.04485	396.46069	126.27182	126.12781	126.30870
14.8375	14.8442	180	102	466.24060	218.34112	174.69734	161.78519	210.40273	162.80407	209.91291	432.58742	1222.1650	485.71563	382.20080	408.13885	387.07928	377.83477	389.12926	413.87129	407.20290	408.64141	397.18071	406.53556	392.98425	396.39651	126.24460	126.10492	126.28735
14.8442	14.8509	196	95	466.15594	218.30058	174.66537	161.75564	210.36606	162.77409	209.87486	432.51250	1221.9612	485.62443	382.13778	408.11924	387.03154	377.77338	389.06894	413.80308	407.15784	408.60267	397.16645	406.47131	392.93059	396.33799	126.22117	126.08449	126.26741
14.8509	14.8576	200	94	466.07630	218.26286	174.63601	161.72675	210.33214	162.74411	209.83784	432.44324	1221.7666	485.53937	382.07879	408.10926	386.98862	377.71548	389.01259	413.73979	407.11753	408.56870	397.15813	406.41112	392.88264	396.28411	126.20085	126.06610	126.24862
14.8576	14.8643	192	90	466.01257	218.23436	174.61468	161.70653	210.30411	162.72455	209.81123	432.39035	1221.6308	485.47601	382.03684	408.11587	386.96155	377.67232	388.96511	413.69515	407.09794	408.55111	397.16079	406.36847	392.85151	396.24572	126.18518	126.05210	126.23552
14.8643	14.8710	237	91	465.95624	218.21013	174.59708	161.69033	210.27881	162.70983	209.78944	432.34506	1221.5223	485.42271	382.00278	408.13017	386.94184	377.63600	388.92175	413.65918	407.08795	408.54111	397.16855	406.33395	392.82819	396.21451	126.17167	126.04014	126.22506
14.8710	14.8777	256	103	465.90387	218.18724	174.57707	161.67356	210.25830	162.69212	209.76627	432.30041	1221.4124	485.36948	381.96693	408.13638	386.92199	377.60380	388.87406	413.62098	407.07668	408.53493	397.18652	406.30051	392.80511	396.18644	126.15786	126.02865	126.21352
14.8777	14.8844	241	112	465.85237	218.16463	174.55651	161.65665	210.23885	162.67374	209.74278	432.25590	1221.3022	485.31625	381.93067	408.14079	386.90211	377.57251	388.82540	413.58229	407.06511	408.52961	397.20677	406.26730	392.78208	396.15907	126.14398	126.01727	126.20174
14.8844	14.8911	258	102	465.79521	218.13912	174.53897	161.63769	210.21370	162.65617	209.72278	432.21197	1221.1919	485.26498	381.89577	408.15618	386.88314	377.53625	388.77409	413.54529	407.05443	408.52326	397.22079	406.23227	392.75829	396.13040	126.13162	126.00590	126.19184
14.8911	14.8978	254	109	465.73891	218.11429	174.52176	161.61934	210.18896	162.63907	209.70288	432.16881	1221.0839	485.21481	381.86168	408.17247	386.86490	377.50060	388.72319	413.50900	407.04505	408.51800	397.23440	406.19799	392.73530	396.10250	126.11960	125.99469	126.18207
14.8978	14.9045	275	88	465.69469	218.09817	174.50635	161.60852	210.17160	162.62658	209.68212	432.13361	1220.9997	485.17524	381.83542	408.19248	386.85371	377.47414	388.67794	413.47929	407.04895	408.52496	397.24682	406.17266	392.72106	396.08347	126.11046	125.98521	126.17255
14.9045	14.9112	275	105	465.65943	218.08589	174.49450	161.59952	210.15882	162.61676	209.66689	432.10739	1220.9390	485.14473	381.81643	408.22037	386.85046	377.45562	388.64292	413.45858	407.06281	408.54032	397.27059	406.15541	392.71456	396.07197	126.10370	125.97865	126.16604
14.9112	14.9179	307	111	465.65587	218.08718	174.49520	161.59694	210.16228	162.61641	209.67125	432.11295	1220.9613	485.14631	381.82318	408.27610	386.87522	377.46519	388.64408	413.46967	407.11182	408.58539	397.33443	406.16671	392.73547	396.08710	126.10539	125.98242	126.17020
14.9179	14.9246	316	106	465.64939	218.08762	174.49624	161.59621	210.16308	162.61664	209.67312	432.11708	1220.9828	485.14777	381.82971	408.33434	386.89887	377.47385	388.64273	413.47854	407.16205	408.63062	397.39453	406.17628	392.75558	396.09972	126.10732	125.98522	126.17358
14.9246	14.9313	334	108	465.63758	218.08654	174.49791	161.59886	210.15904	162.61793	209.67043	432.11861	1221.0029	485.14904	381.83584	408.39713	386.92049	377.48086	388.63684	413.48337	407.21451	408.67613	397.44785	406.18269	392.77424	396.10779	126.10967	125.98625	126.17555
14.9313	14.9380	392	128	465.62354	218.08675	174.49693	161.59841	210.15883	162.61773	209.66925	432.12064	1221.0229	485.14911	381.84049	408.45852	386.94192	377.48602	388.63276	413.48910	407.26241	408.72631	397.50395	406.18788	392.79247	396.11537	126.11193	125.98820	126.17818
14.9380	14.9447	498	105	465.60716	218.08830	174.49318	161.59474	210.16262	162.61597	209.66965	432.12320	1221.0430	485.14795	381.84359	408.51843	386.96313	377.48925	388.63058	413.49575	407.30556	408.78133	397.56296	406.19179	392.81026	396.12245	126.11410	125.99112	126.18148
14.9447	14.9514	602	106	465.58580	218.08671	174.49275	161.59350	210.16025	162.61554	209.66880	432.12473	1221.0603	485.14543	381.84760	408.57140	386.98412	377.49360	388.62624	413.50167	407.34342	408.83770	397.62021	406.19086	392.82739	396.12912	126.11547	125.99239	126.18370
14.9514	14.9581	841	107	465.56143	218.08322	174.49433	161.59374	210.15416	162.61590	209.66720	432.12563	1221.0760	485.14209	381.85217	408.62019	387.00497	377.49863	388.62060	413.50715	407.37811	408.89490	397.67641	406.18699	392.84414	396.13553	126.11634	125.99267	126.18526
14.9581	14.9648	1165	158	465.53352	218.08344	174.49281	161.59322	210.15324	162.61461	209.66665	432.12693	1221.0893	485.14189	381.85656	408.67201	387.02481	377.50430	388.62067	413.51140	407.40783	408.94226	397.72708	406.17833	392.86103	396.14198	126.11768	125.99466	126.18745
14.9648	14.9715	1672	161	465.50448	218.08485	174.49029	161.59246	210.15397	162.61279	209.66643	432.12835	1221.1020	485.14271	381.86090	408.72480	387.04433	377.51017	388.62258	413.51525	407.43597	408.98647	397.77599	406.16814	392.87796	396.14843	126.11916	125.99718	126.18985
14.9715	14.9782	2258	162	465.49229	218.09132	174.49626	161.59670	210.15927	162.61836	209.67248	432.14629	1221.1606	485.15723	381.87909	408.79971	387.08098	377.52728	388.63225	413.53805	407.48038	409.03221	397.84809	406.16702	392.91070	396.17118	126.12490	126.00371	126.19696
14.9782	14.9849	3047	156	465.48274	218.09850	174.50333	161.60158	210.16518	162.62488	209.67931	432.16632	1221.2252	485.17366	381.89895	408.87719	387.11977	377.54598	388.64314	413.56318	407.52664	409.07806	397.92281	406.16708	392.94544	396.19595	126.13123	126.01075	126.20470
14.9849	14.9916	3718	208	465.49497	218.10931	174.51289	161.60801	210.17275	162.63335	209.68745	432.18952	1221.3056	485.19912	381.91811	408.94990	387.16092	377.57316	388.66451	413.58972	407.56829	409.12098	397.99062	406.17053	392.98311	396.22212	126.13994	126.01877	126.21484
14.9916	14.9983	4024	212	465.50877	218.11991	174.52167	161.61470	210.18071	162.64141	209.69610	432.21298	1221.3856	485.22390	381.93637	409.02347	387.20195	377.59987	388.68512	413.61613	407.60955	409.16387	398.05956	406.17383	393.02077	396.24848	126.14872	126.02678	126.22451
14.9983	15.0050	3918	206	465.53080	218.12943	174.52641	161.62276	210.19068	162.64739	209.70747	432.23782	1221.4638	485.24514	381.94989	409.10151	387.24232	377.62416	388.70177	413.64186	407.64881	409.20670	398.13440	406.17636	393.05843	396.27581	126.15782	126.03475	126.23174
15.0050	15.0117	3309	197	465.55682	218.13893	174.53223	161.62926	210.19922	162.65358	209.71696	432.26156	1221.5429	485.26677	381.96372	409.17789	387.28272	377.64793	388.71856	413.66781	407.68905	409.24953	398.20845	406.18143	393.09599	396.30322	126.16673	126.04296	126.23992
15.0117	15.0184	2792	196	465.59237	218.14835	174.54064	161.63202	210.20436	162.66028	209.72196	432.28268	1221.6242	485.28932	381.97826	409.25028	387.32320	377.67046	388.73571	413.69429	407.73162	409.29237	398.28064	406.19259	393.13332	396.33082	126.17514	126.05176	126.25038
15.0184	15.0251	2186	163	465.62815	218.15792	174.54777	161.63682	210.20990	162.66709	209.72908	432.30428	1221.6997	485.31086	381.99325	409.32601	387.36386	377.69381	388.75387	413.72107	407.77303	409.33504	398.35582	406.20349	393.17060	396.35844	126.18278	126.05990	126.25956
15.0251	15.0318	1693	135	465.66425	218.16768	174.55323	161.64435	210.21596	162.67405	209.73903	432.32654	1221.7673	485.33106	382.00883	409.40619	387.40478	377.71825	388.77337	413.74824	407.81291	409.37750	398.43501	406.21405	393.20781	396.38609	126.18939	126.06716	126.26707
15.0318	15.0385	1398	156	465.70088	218.17708	174.55785	161.65022	210.21946	162.68141	209.74725	432.34932	1221.8395	485.35167	382.02509	409.48314	387.44533	377.74313	388.79107	413.77379	407.85371	409.41982	398.51027	406.22503	393.24502	396.41309	126.19666	126.07515	126.27606
15.0385	15.0452	1162	123	465.73792	218.18622	174.56182	161.65480	210.22098	162.68906	209.75412	432.37250	1221.9152	485.37258	382.04186	409.55758	387.48558	377.76833	388.80736	413.79808	407.89521	409.46203	398.58248	406.23632	393.28223	396.43959	126.20444	126.08371	126.28621
15.0452	15.0519	968	129	465.77337	218.19443	174.56919	161.65781	210.22687	162.69348	209.76068	432.39456	1221.9930	485.39149	382.05852	409.63453	387.52558	377.79193	388.82399	413.82422	407.93543	409.50431	398.65666	406.24850	393.31917	396.46566	126.21330	126.09202	126.29493
15.0519	15.0586	902	119	465.80815	218.20225	174.57802	161.66015	210.23464	162.69652	209.76710	432.41614	1222.0716	485.40953	382.07513	409.71257	387.56547	377.81484	388.84075	413.85116	407.97510	409.54661	398.73171	406.26105	393.35600	396.49155	126.22263	126.10023	126.30304
15.0586	15.0653	809	103	465.86122	218.21908	174.58704	161.66935	210.23084	162.70907	209.77890	432.45218	1222.1882	485.44787	382.10738	409.80200	387.61968	377.85257	388.87216	413.89164	408.02992	409.60337	398.81805	406.29169	393.40662	396.53327	126.23528	126.11191	126.31625
15.0653	15.0720	698	119	465.91800	218.23774	174.59611	161.67994	210.22471	162.72356	209.79179	432.49114	1222.3124	485.49032	382.14279	409.89374	387.67680	377.89328	388.90653	413.93486	408.08780	409.66304	398.90667	406.32598	393.46003	396.57820	126.24859	126.12430	126.33049
15.0720	15.0787	639	103	465.97970	218.25508	174.61068	161.69125	210.23314	162.73549	209.80977	432.53637	1222.4553	485.53382	382.18285	409.99672	387.73966	377.93847	388.94567	413.98528	408.15210	409.72935	399.00527	406.36519	393.51983	396.62760	126.26413	126.14026	126.34694
15.0787	15.0854	551	116	466.04176	218.27297	174.62496	161.70096	210.24214	162.74770	209.82746	432.58170	1222.5973	485.57761	382.22307	410.09940	387.80271	377.98381	388.98500	414.03568	408.21672	409.79583	399.10345	406.40470	393.57981	396.67731	126.27963	126.15624	126.36333
15.0854	15.0921	433	112	466.10531	218.29614	174.63497	161.69624	210.25179	162.76311	209.84100	432.62585	1222.7258	485.62353	382.26312	410.19577	387.86554	378.02901	389.02455	414.08366	408.28223	409.86175	399.19476	406.44525	393.63933	396.72841	126.29404	126.17124	126.37852
15.0921	15.0988	365	106	466.16876	218.31741	174.64565	161.69496	210.26494	162.77772	209.85394	432.66949	1222.8521	485.66853	382.30338	410.29556	387.92832	378.07432	389.06393	414.13185	408.34693	409.92764	399.28764	406.48562	393.69886	396.77914	126.30860	126.18644	126.39428
15.0988	15.1055	340	114	466.23191	218.33256	174.65854	161.70490	210.28942	162.78971	209.86491	432.71148	1222.9709	485.71056	382.34435	410.40651	387.99095	378.11999	389.10277	414.18072	408.40905	409.99345	399.38566	406.52539	393.75846	396.82869	126.32360	126.20229	126.41188
15.1055	15.1122	300	90	466.29480	218.34854	174.66487	161.71884	210.31506	162.80122	209.87390	432.75246	1223.0952	485.75193	382.38413	410.51114	388.05361	378.16589	389.14114	414.23016	408.47273	410.05933	399.48386	406.56544	393.81802	396.87880	126.33908	126.21738	126.42836
15.1122	15.1189	240	108	466.35726	218.36592	174.66001	161.73959	210.34266	162.81191	209.87948	432.79171	1223.2285	485.79216	382.42189	410.60498	388.11634	378.21219	389.17872	414.28058	408.53906	410.12533	399.58237	406.60595	393.87749	396.92987	126.35536	126.23115	126.44294
15.1189	15.1256	266	95	466.41970	218.38008	174.66094	161.76074	210.37093	162.81750	209.88414	432.83151	1223.3469	485.83165	382.46134	410.70501	388.17912	378.25682	389.21659	414.33015	408.60394	410.19108	399.68033	406.64631	393.93684	396.98010	126.37080	126.24568	126.45872
15.1256	15.1323	278	111	466.48214	218.39105	174.66758	161.78229	210.39985	162.81806	209.88788	432.87187	1223.4505	485.87042	382.50247	410.81115	388.24196	378.29983	389.25477	414.37890	408.66740	410.25660	399.77777	406.68653	393.99607	397.02951	126.38541	126.26096	126.47568
15.1323	15.1390	300	104	466.54400	218.40563	174.68282	161.80393	210.42746	162.82031	209.90042	432.91233	1223.5645	485.90547	382.54169	410.91623	388.30461	378.34411	389.28957	414.42742	408.73099	410.32218	399.87175	406.72704	394.05536	397.07964	126.40109	126.27671	126.49127
15.1390	15.1457	327	115	466.60553	218.42225	174.70295	161.82562	210.45432	162.82351	209.91795	432.95285	1223.6845	485.93841	382.57984	411.02070	388.36714	378.38911	389.32246	414.47582	408.79463	410.38780	399.96375	406.76770	394.11466	397.13017	126.41739	126.29274	126.50607
15.1457	15.1524	431	100	466.68033	218.43400	174.72956	161.85160	210.48873	162.83847	209.94898	433.00256	1223.8404	485.97842	382.63047	411.13911	388.43884	378.44502	389.36855	414.53507	408.86958	410.46373	400.06875	406.81832	394.18365	397.19032	126.43491	126.31101	126.52528
15.1524	15.1591	437	116	466.75905	218.44433	174.75808	161.87886	210.52535	162.85690	209.98399	433.05498	1224.0068	486.02051	382.68479	411.26164	388.51325	378.50415	389.41854	414.59752	408.94787	410.54272	400.17759	406.87189	394.25551	397.25331	126.45278	126.32994	126.54578
15.1591	15.1658	513	107	466.84323	218.46717	174.79018	161.90755	210.56254	162.88469	210.02150	433.11481	1224.1874	486.05847	382.74050	411.38569	388.59571	378.56480	389.47258	414.66738	409.03242	410.62886	400.29003	406.93276	394.33394	397.32249	126.47413	126.35044	126.56762
15.1658	15.1725	529	127	466.92808	218.49171	174.82264	161.93648	210.59990	162.91349	210.05933	433.17531	1224.3704	486.09651	382.79656	411.50993	388.67892	378.62580	389.52660	414.73788	409.11758	410.71571	400.40289	406.99435	394.41304	397.39228	126.49587	126.37112	126.58961
15.1725	15.1792	603	110	467.01499	218.52575	174.85514	161.96724	210.63978	162.94333	210.09831	433.23349	1224.5745	486.14640	382.85737	411.63489	388.76038	378.69122	389.57048	414.80546	409.20181	410.80186	400.51697	407.05508	394.49207	397.46172	126.51819	126.39242	126.61204
15.1792	15.1859	598	96	467.10160	218.56045	174.88746	161.99762	210.67937	162.97318	210.13725	433.29147	1224.7748	486.19872	382.91785	411.75920	388.84197	378.75657	389.61648	414.87336	409.28614	410.88802	400.63159	407.11579	394.57106	397.53140	126.54023	126.41394	126.63442
15.1859	15.1926	592	101	467.18676	218.59831	174.91901	162.02617	210.71757	163.00309	210.17598	433.34845	1224.9573	486.26242	382.97676	411.88039	388.92417	378.82161	389.67241	414.94274	409.37093	410.97421	400.74875	407.17638	394.64989	397.60220	126.56088	126.43653	126.65650
15.1926	15.1993	576	115	467.26908	218.63529	174.94986	162.05443	210.75441	163.03193	210.21304	433.40237	1225.1310	486.32996	383.03226	411.99842	389.00369	378.88301	389.71732	415.00723	409.45325	411.05765	400.86175	407.23417	394.72605	397.66981	126.58127	126.45777	126.67792
15.1993	15.2060	636	106	467.34505	218.67035	174.97915	162.08204	210.78825	163.05837	210.24640	433.44950	1225.2852	486.40609	383.08017	412.10944	389.07722	378.93630	389.73766	415.06079	409.53005	411.13495	400.96550	407.28574	394.79626	397.73028	126.60111	126.47605	126.69788
15.2060	15.2127	686	118	467.43049	218.71053	175.01130	162.11184	210.82700	163.08826	210.28486	433.50813	1225.4716	486.49366	383.13728	412.22624	389.15892	378.99813	389.76976	415.12248	409.61448	411.22090	401.08182	407.34611	394.87473	397.79919	126.62262	126.49705	126.72014
15.2127	15.2194	819	121	467.52777	218.75710	175.04704	162.14435	210.87190	163.12248	210.32971	433.58116	1225.6984	486.59551	383.20592	412.35027	389.25085	379.07065	389.81655	415.19433	409.70844	411.31764	401.21386	407.41748	394.96352	397.87867	126.64620	126.52147	126.74529
15.2194	15.2261	992	145	467.62507	218.80269	175.08397	162.17832	210.91564	163.15652	210.37350	433.65625	1225.9175	486.69727	383.27297	412.47931	389.34331	379.14464	389.86331	415.26559	409.80423	411.41468	401.34225	407.48849	395.05270	397.95903	126.67081	126.54587	126.77113
15.2261	15.2328	1224	127	467.72240	218.84757	175.12178	162.21335	210.95854	163.19045	210.41651	433.73286	1226.1312	486.79898	383.33889	412.61203	389.43618	379.21971	389.91006	415.33642	409.90136	411.51196	401.46800	407.55924	395.14216	398.04003	126.69618	126.57027	126.79746
15.2328	15.2395	1464	128	467.81489	218.89164	175.15603	162.24507	211.00136	163.22314	210.45858	433.80948	1226.3465	486.89582	383.40138	412.74238	389.52505	379.28910	389.96703	415.40318	409.99812	411.60512	401.58611	407.62613	395.22705	398.11672	126.71961	126.59330	126.82117
15.2395	15.2462	1610	142	467.90545	218.93538	175.18884	162.27544	211.04415	163.25533	210.50027	433.88610	1226.5626	486.99071	383.46250	412.87178	389.61232	379.35620	390.02812	415.46830	410.09474	411.69663	401.70113	407.69146	395.31009	398.19167	126.74227	126.61578	126.84382
15.2462	15.2529	1598	144	467.99624	218.97677	175.22342	162.30726	211.08396	163.28661	210.54098	433.96294	1226.7613	487.08479	383.52065	413.00192	389.70307	379.42159	390.09892	415.53441	410.19076	411.78743	401.82577	407.75617	395.39351	398.26620	126.76496	126.63908	126.86845
15.2529	15.2596	1351	142	468.08708	219.01772	175.25833	162.33934	211.12322	163.31772	210.58152	434.03983	1226.9568	487.17871	383.57827	413.13218	389.79444	379.48666	390.17146	415.60070	410.28665	411.87810	401.95214	407.82075	395.47700	398.34065	126.78765	126.66252	126.89344
15.2596	15.2663	1171	128	468.17828	219.06141	175.29217	162.37089	211.16589	163.34993	210.62251	434.11692	1227.1453	487.27367	383.63754	413.25963	389.88904	379.55385	390.24734	415.66742	410.38213	411.96947	402.07382	407.88324	395.55979	398.41441	126.81191	126.68432	126.91514
15.2663	15.2730	996	133	468.25889	219.10008	175.32210	162.39877	211.20354	163.37846	210.65880	434.18460	1227.3093	487.35763	383.68796	413.37840	389.97482	379.61135	390.31452	415.72504	410.46863	412.05164	402.18760	407.93640	395.63381	398.47934	126.83299	126.70344	126.93441
15.2730	15.2797	713	120	468.25845	219.10003	175.32231	162.39863	211.20226	163.37857	210.65896	434.18008	1227.2866	487.35728	383.67031	413.43110	389.99256	379.59440	390.31466	415.71294	410.48640	412.06313	402.24161	407.91845	395.64081	398.47678	126.82963	126.70230	126.93545
15.2797	15.2864	538	136	468.16704	219.05712	175.28838	162.36686	211.16041	163.34685	210.61793	434.09049	1227.0188	487.26224	383.57795	413.39945	389.93379	379.50340	390.23908	415.62005	410.42255	411.99413	402.21299	407.81984	395.57049	398.39646	126.80207	126.67624	126.91085
15.2864	15.2931	482	118	467.80272	218.88561	175.15204	162.24019	210.99681	163.21958	210.45331	433.74562	1226.0157	486.88306	383.26143	413.11471	389.64548	379.19023	389.93627	415.28477	410.11383	411.68355	401.93641	407.47915	395.26818	398.08282	126.70191	126.57543	126.80929
15.2931	15.2998	374	119	467.43778	218.71459	175.01550	162.11349	210.83248	163.09222	210.28901	433.40130	1225.0223	486.50359	382.94392	412.83405	389.35719	378.87903	389.63322	414.94932	409.80527	411.37331	401.66343	407.13965	394.96596	397.76944	126.60178	126.47392	126.70897
15.2998	15.3065	384	111	467.07179	218.54432	174.87863	161.98673	210.66699	162.96469	210.12523	433.05781	1224.0444	486.12361	382.62474	412.55985	389.06889	378.57094	389.32972	414.61353	409.49692	411.06355	401.39617	406.80199	394.66383	397.45646	126.50168	126.37129	126.61061
15.3065	15.3132	343	97	466.70724	218.37395	174.74227	161.86061	210.50262	162.83753	209.96133	432.71520	1223.0510	485.74446	382.30353	412.28673	388.78070	378.26408	389.02691	414.27751	409.18875	410.75411	401.12584	406.46489	394.36243	397.14307	126.40116	126.26862	126.51144
15.3132	15.3199	334	84	466.34398	218.20347	174.60636	161.73507	210.33927	162.71070	209.79731	432.37336	1222.0429	485.36603	381.98037	412.01455	388.49260	377.95832	388.72470	413.94123	408.88068	410.44492	400.85262	406.12827	394.06168	396.82926	126.30025	126.16591	126.41151
15.3199	15.3266	299	102	465.98019	218.03365	174.47026	161.60887	210.17535	162.58374	209.63387	432.03203	1221.0351	484.98786	381.65495	411.73516	388.20432	377.65082	388.42136	413.60582	408.57081	410.13588	400.58032	405.79120	393.76048	396.51645	126.19985	126.06324	126.31189
15.3266	15.3333	285	101	465.61615	217.86419	174.33407	161.48232	210.01114	162.45671	209.47074	431.69100	1220.0276	484.60987	381.32836	411.45196	387.91598	377.34241	388.11745	413.27091	408.26000	409.82694	400.30852	405.45392	393.45908	396.20419	126.09973	125.96060	126.21245
15.3333	15.3400	283	100	465.25270	217.69365	174.19811	161.35669	209.84771	162.32970	209.30678	431.34725	1219.0448	484.23216	380.99261	411.17692	387.62706	377.03661	387.81627	412.93778	407.95181	409.51851	400.04413	405.12203	393.15860	395.89279	125.99939	125.85784	126.11278
15.3400	15.3467	261	107	464.88940	217.52281	174.06219	161.23131	209.68448	162.20269	209.14260	431.00277	1218.0685	483.85451	380.65437	410.90407	387.33798	376.73151	387.51582	412.60513	407.64431	409.21022	399.78172	404.79159	392.85837	395.58162	125.89899	125.75504	126.01305
15.3467	15.3534	271	93	464.52522	217.35326	173.92625	161.10471	209.51976	162.07614	208.97947	430.65987	1217.0633	483.47609	380.32566	410.63192	387.04879	376.42590	387.21143	412.26869	407.33493	408.90152	399.51297	404.46701	392.55752	395.27028	125.79892	125.65235	125.91287
15.3534	15.3601	288	80	464.16103	217.18376	173.79032	160.97808	209.35499	161.94961	208.81640	430.31711	1216.0559	483.09761	379.99843	410.35929	386.75966	376.12024	386.90699	411.93214	407.02549	408.59281	399.24360	404.14304	392.25669	394.95885	125.69887	125.54970	125.81262
15.3601	15.3668	249	96	463.79783	217.01331	173.65464	160.85259	209.19151	161.82262	208.65278	429.97452	1215.0556	482.71902	379.68233	410.07753	386.47165	375.81435	386.60733	411.59901	406.71762	408.28436	398.97277	403.82077	391.95710	394.64622	125.59891	125.44758	125.71188
15.3668	15.3735	225	104	463.43871	216.84492	173.52036	160.72828	209.02964	161.69711	208.49098	429.63536	1214.0647	482.34487	379.37227	409.80050	386.18686	375.51194	386.31031	411.26901	406.41280	407.97937	398.70664	403.50185	391.66137	394.33738	125.49990	125.34670	125.61145
15.3735	15.3802	201	102	463.09693	216.68530	173.39202	160.60901	208.87459	161.57792	208.33695	429.31078	1213.1143	481.98958	379.08788	409.54364	385.91573	375.22433	386.02454	410.95229	406.12092	407.68911	398.46050	403.19719	391.38206	394.04463	125.40496	125.25112	125.51232
15.3802	15.3869	192	89	462.75555	216.52585	173.26434	160.49052	208.72017	161.45900	208.18347	428.98783	1212.1591	481.63483	378.80585	409.28796	385.64511	374.93708	385.74002	410.63674	405.83075	407.39956	398.21473	402.89369	391.10444	393.75177	125.31059	125.15528	125.41412
15.3869	15.3936	171	88	462.41483	216.36672	173.13795	160.37360	208.56698	161.34060	208.03103	428.66814	1211.1937	481.28107	378.52862	409.03463	385.37543	374.65046	385.45796	410.32348	405.54401	407.11138	397.96964	402.59250	390.83025	393.45855	125.21735	125.05884	125.31783
15.3936	15.4003	217	77	462.07507	216.20823	173.01080	160.25607	208.41404	161.22198	207.87840	428.34696	1210.2466	480.92795	378.25101	408.78166	385.10602	374.36509	385.17598	410.00979	405.25676	406.82372	397.72070	402.29201	390.55910	393.16621	125.12314	124.96277	125.22063
15.4003	15.4070	236	91	461.73633	216.05043	172.88269	160.13778	208.26135	161.10308	207.72550	428.02393	1209.3207	480.57549	377.97284	408.52903	384.83687	374.08112	384.89398	409.69552	404.96881	406.53661	397.46712	401.99224	390.29147	392.87481	125.02775	124.86712	125.12231
15.4070	15.4137	251	95	461.39650	215.89160	172.75618	160.02019	208.10863	160.98517	207.57296	427.70191	1208.3615	480.22264	377.69563	408.27580	384.56799	373.79608	384.61226	409.38162	404.68072	406.24927	397.22049	401.69123	390.02486	392.58296	124.93302	124.77170	125.02023
15.4137	15.4204	308	99	461.05589	215.73205	172.63076	159.90307	207.95587	160.86792	207.42065	427.38055	1207.3794	479.86949	377.41904	408.02215	384.29927	373.51027	384.33070	409.06796	404.39250	405.96176	396.97860	401.38935	389.75891	392.29077	124.83874	124.67645	124.91556
15.4204	15.4271	322	102	460.71024	215.57087	172.50094	159.78293	207.80056	160.74707	207.26505	427.05081	1206.3589	479.50998	377.13671	407.76241	384.02561	373.21496	384.04359	408.74829	404.10000	405.66909	396.72412	401.08388	389.48678	391.99338	124.74256	124.57983	124.81332
15.4271	15.4338	345	124	460.36273	215.40909	172.36946	159.66165	207.64430	160.62486	207.10823	426.71795	1205.3240	479.14810	376.85225	407.50042	383.75011	372.91611	383.75441	408.42638	403.80591	405.37451	396.46493	400.77708	389.21235	391.69407	124.64567	124.48271	124.71199
15.4338	15.4405	381	97	460.02737	215.25175	172.24507	159.54573	207.49340	160.50850	206.95770	426.39903	1204.3777	478.79977	376.57808	407.24996	383.48535	372.63708	383.47601	408.11419	403.52263	405.09111	396.22354	400.47888	388.94681	391.40625	124.55098	124.38843	124.61405
15.4405	15.4472	391	100	459.69395	215.09512	172.12182	159.43065	207.34335	160.39308	206.80818	426.08234	1203.4456	478.45359	376.30556	407.00136	383.22231	372.36122	383.19933	407.80356	403.24108	404.80950	395.98501	400.18205	388.68270	391.12027	124.45664	124.29461	124.51665
15.4472	15.4539	327	108	459.37344	214.94597	172.00057	159.31893	207.19892	160.28148	206.66373	425.76908	1202.4814	478.12095	376.04411	406.76625	382.96845	372.09103	382.93314	407.50402	402.96825	404.53886	395.75459	399.89831	388.42590	390.84252	124.36587	124.20415	124.42583
15.4539	15.4606	344	100	459.05289	214.79668	171.87961	159.20735	207.05451	160.16982	206.51940	425.45611	1201.5277	477.78814	375.78250	406.53042	382.71471	371.82036	382.66697	407.20417	402.69580	404.26826	395.52355	399.61480	388.16916	390.56443	124.27519	124.11389	124.33477
15.4606	15.4673	286	110	458.73167	214.64637	171.76045	159.09665	206.91001	160.05756	206.37575	425.14508	1200.6446	477.45399	375.51953	406.28949	382.46149	371.54628	382.40066	406.90193	402.42568	403.99769	395.28813	399.33257	387.91268	390.28381	124.18495	124.02496	124.24192
15.4673	15.4740	251	105	458.41073	214.49656	171.64111	158.98588	206.76551	159.94577	206.23193	424.83525	1199.7619	477.12061	375.25726	406.05303	382.20853	371.27345	382.13439	406.60008	402.15546	403.72711	395.05341	399.04963	387.65588	390.00210	124.09465	123.93575	124.14918
15.4740	15.4807	299	93	458.09053	214.34812	171.52124	158.87487	206.62098	159.83528	206.08759	424.52873	1198.8798	476.78934	374.99689	405.82895	381.95621	371.00403	381.86820	406.29930	401.88495	403.45647	394.82059	398.76472	387.39818	389.71734	124.00422	123.84577	124.05673
15.4807	15.4874	239	90	457.77074	214.19889	171.40155	158.76405	206.47688	159.72399	205.94380	424.22412	1198.0134	476.45753	374.73584	405.59795	381.70432	370.73372	381.60283	405.99869	401.61400	403.18644	394.59057	398.48068	387.14050	389.43024	123.91392	123.75533	123.96566
15.4874	15.4941	235	93	457.45150	214.04846	171.28211	158.65351	206.33339	159.61147	205.80079	423.92233	1197.1705	476.12483	374.47373	405.35647	381.45304	370.46199	381.33862	405.69829	401.34234	402.91727	394.36471	398.19789	386.88280	389.13956	123.82382	123.66420	123.87666
15.4941	15.5008	185	95	457.12953	213.89817	171.16177	158.54207	206.18833	159.49941	205.65621	423.62010	1196.3244	475.79089	374.21105	405.11747	381.19928	370.18951	381.07086	405.39409	401.07003	402.64593	394.13203	397.91333	386.62324	388.84492	123.73310	123.57368	123.78496
15.5008	15.5075	218	98	456.80521	213.74804	171.04066	158.42987	206.04191	159.38776	205.51026	423.31753	1195.4757	475.45589	373.94790	404.88066	380.94338	369.91640	380.80003	405.08660	400.79718	402.37272	393.89340	397.62724	386.36209	388.54687	123.64186	123.48371	123.69092
15.5075	15.5142	178	79	456.48579	213.59849	170.92061	158.31921	205.89807	159.27611	205.36656	423.01883	1194.6423	475.12334	373.68674	404.64838	380.69097	369.64539	380.53532	404.77952	400.52411	402.10262	393.66228	397.34378	386.10336	388.24495	123.55220	123.39297	123.60027
15.5142	15.5209	160	99	456.16880	213.44923	170.80107	158.20931	205.75550	159.16445	205.22399	422.72204	1193.8164	474.79197	373.42654	404.41834	380.44027	369.37539	380.27364	404.47261	400.25092	401.83404	393.43490	397.06161	385.84580	387.94109	123.46332	123.30185	123.51130
15.5209	15.5276	137	81	456.04105	213.39017	170.75395	158.16499	205.69837	159.12069	205.16667	422.60270	1193.4864	474.66079	373.32346	404.35166	380.35058	369.25699	380.16810	404.33279	400.14164	401.73546	393.37429	396.94769	385.75088	387.80762	123.42537	123.26422	123.47318
15.5276	15.5343	137	102	455.96009	213.35341	170.72475	158.13690	205.66236	159.09371	205.13043	422.52724	1193.2789	474.57911	373.25923	404.32538	380.30069	369.17608	380.10116	404.23429	400.07290	401.67891	393.35492	396.87537	385.69616	387.71629	123.40002	123.23981	123.44764
15.5343	15.5410	102	83	456.14891	213.44160	170.79573	158.20325	205.74690	159.15909	205.21551	422.69890	1193.7778	474.77479	373.41450	404.54946	380.47327	369.31162	380.25990	404.36475	400.24477	401.86076	393.56619	397.03371	385.86602	387.85483	123.44699	123.28709	123.49382
15.5410	15.5477	126	102	456.35684	213.53867	170.87373	158.27614	205.84013	159.23108	205.30923	422.88818	1194.3261	474.99018	373.58527	404.79062	380.66173	369.46254	380.43446	404.51098	400.43354	402.05975	393.79356	397.20846	386.05184	388.00984	123.49907	123.33944	123.54526
15.5477	15.5544	142	100	456.57464	213.64071	170.95440	158.35055	205.93971	159.30726	205.40792	423.08810	1194.8924	475.21675	373.76355	405.03233	380.85989	369.62188	380.61508	404.65970	400.62913	402.27101	394.02626	397.39281	386.24683	388.17587	123.55386	123.39434	123.60164
15.5544	15.5611	138	94	456.79320	213.74268	171.03537	158.42539	206.03848	159.38340	205.50611	423.28780	1195.4587	475.44334	373.94181	405.27616	381.05785	369.78123	380.79595	404.81227	400.82475	402.48184	394.25901	397.57735	386.44154	388.34238	123.60881	123.44887	123.65739
15.5611	15.5678	191	89	457.01486	213.84447	171.11759	158.50196	206.13411	159.45940	205.60241	423.48681	1196.0250	475.67012	374.12005	405.52837	381.25517	369.94073	380.97790	404.97991	401.02054	402.69118	394.49209	397.76274	386.63534	388.51087	123.66443	123.50206	123.71067
15.5678	15.5745	195	90	457.23714	213.94651	171.19900	158.57759	206.23118	159.53521	205.69954	423.68645	1196.5942	475.89657	374.29803	405.77920	381.45323	370.09964	381.15999	405.15076	401.21632	402.89974	394.72805	397.94689	386.82933	388.67948	123.72019	123.55571	123.76470
15.5745	15.5812	235	79	457.46056	214.04903	171.27880	158.65140	206.33101	159.61062	205.79824	423.88726	1197.1691	476.12229	374.47546	406.02726	381.65267	370.25738	381.34230	405.32785	401.41203	403.10676	394.96955	398.12859	387.02365	388.84828	123.77622	123.61026	123.82016
15.5812	15.5879	342	91	457.68450	214.15046	171.35972	158.72624	206.42857	159.68612	205.89560	424.08741	1197.7392	476.34801	374.65275	406.27321	381.85331	370.41339	381.52340	405.51043	401.60853	403.31354	395.21131	398.31139	387.21727	389.01700	123.83152	123.66400	123.87522
15.5879	15.5946	432	109	457.90904	214.25069	171.44192	158.80224	206.52362	159.76174	205.99147	424.28683	1198.3040	476.57376	374.82990	406.51685	382.05530	370.56751	381.70319	405.69913	401.80595	403.52011	395.45339	398.49545	387.41016	389.18564	123.88602	123.71686	123.92985
15.5946	15.6013	550	108	458.13165	214.35176	171.52279	158.87746	206.62142	159.83722	206.08866	424.48571	1198.8689	476.79909	375.00776	406.76345	382.25912	370.71556	381.88448	405.88967	402.00428	403.72590	395.68930	398.67919	387.60280	389.35502	123.94060	123.76955	123.98407
15.6013	15.6080	625	111	458.35300	214.45335	171.60279	158.95216	206.72100	159.91260	206.18671	424.68422	1199.4338	477.02414	375.18607	407.01192	382.46410	370.85967	382.06672	406.08138	402.20317	403.93116	395.92122	398.86270	387.79528	389.52486	123.99524	123.82211	124.03801
15.6080	15.6147	579	95	458.57355	214.55368	171.68350	159.02634	206.81740	159.98794	206.28360	424.88380	1200.0007	477.24751	375.36255	407.26020	382.66438	370.99243	382.24545	406.27335	402.40248	404.13629	396.15747	399.04594	387.98741	389.69484	124.04956	123.87451	124.09334
15.6147	15.6214	559	104	458.79385	214.65357	171.76446	159.10034	206.91269	160.06325	206.38009	425.08376	1200.5683	477.47031	375.53841	407.50842	382.86304	371.12125	382.42298	406.46542	402.60193	404.34138	396.39524	399.22909	388.17943	389.86488	124.10377	123.92686	124.14915
15.6214	15.6281	487	106	459.02734	214.76088	171.85059	159.18024	207.01687	160.14244	206.48277	425.29677	1201.1676	477.70960	375.72705	407.76825	383.06705	371.26835	382.61603	406.66881	402.80658	404.55789	396.63900	399.42346	388.38249	390.04528	124.16159	123.98009	124.20682
15.6281	15.6348	355	87	459.26277	214.86928	171.93747	159.26099	207.12233	160.22222	206.58639	425.51171	1201.7718	477.95129	375.91757	408.02974	383.27186	371.41839	382.81128	406.87389	403.01208	404.77607	396.88378	399.61950	388.58720	390.22724	124.21995	124.03348	124.26477
15.6348	15.6415	274	89	459.50841	214.98474	172.02800	159.34489	207.23142	160.30832	206.69682	425.73809	1202.4187	478.20475	376.11737	408.29645	383.48320	371.60553	383.00901	407.09061	403.23183	405.00375	397.14906	399.82656	388.80341	390.42193	124.28278	124.09017	124.32635
15.6415	15.6482	228	84	459.75454	215.09990	172.11889	159.42905	207.34079	160.39426	206.80714	425.96458	1203.0650	478.45846	376.31748	408.56441	383.69459	371.79432	383.20705	407.30761	403.45161	405.23145	397.41297	400.03369	389.01968	390.61676	124.34527	124.14689	124.38818
15.6482	15.6549	211	88	460.00381	215.21345	172.21199	159.51479	207.45193	160.47935	206.91695	426.19194	1203.7072	478.71388	376.51963	408.84000	383.90642	371.99299	383.40708	407.52650	403.67177	405.45950	397.66901	400.24149	389.23654	390.81263	124.40582	124.20381	124.45159
15.6549	15.6616	175	77	460.25371	215.32848	172.30483	159.60065	207.56398	160.56531	207.02777	426.42098	1204.3528	478.97133	376.72287	409.11694	384.11966	372.19300	383.60816	407.74635	403.89350	405.68904	397.92876	400.45140	389.45463	391.00943	124.46776	124.26123	124.51442
15.6616	15.6683	156	98	460.50530	215.44740	172.39699	159.68684	207.67845	160.65355	207.14121	426.65445	1205.0075	479.23413	376.92902	409.39748	384.33659	372.39655	383.81203	407.96877	404.11937	405.92250	398.19816	400.66686	389.67595	391.20867	124.53332	124.31997	124.57579
15.6683	15.6750	127	95	460.75826	215.56518	172.49060	159.77415	207.79403	160.74134	207.25413	426.88791	1205.6666	479.49616	377.13522	409.67397	384.55346	372.60056	384.01609	408.19185	404.34485	406.15623	398.46867	400.88147	389.89719	391.40760	124.59718	124.37942	124.63898
15.6750	15.6817	98	108	461.01310	215.68133	172.58625	159.86307	207.91117	160.82847	207.36629	427.12133	1206.3319	479.75704	377.34146	409.94467	384.77021	372.80517	384.22039	408.41583	404.56973	406.39029	398.74068	401.09485	390.11826	391.60604	124.65860	124.43985	124.70472
15.6817	15.6884	106	99	461.26603	215.79888	172.68051	159.95149	208.02819	160.91595	207.47920	427.35449	1206.9924	480.01860	377.54689	410.22221	384.98687	373.00839	384.42384	408.63934	404.79535	406.62386	399.00791	401.30803	390.33859	391.80615	124.72161	124.50232	124.76875
15.6884	15.6951	91	92	461.51739	215.91759	172.77363	160.03952	208.14513	161.00372	207.59276	427.58746	1207.6490	480.28075	377.75167	410.50541	385.20347	373.21051	384.62660	408.86249	405.02160	406.85706	399.27121	401.52109	390.55834	392.00767	124.78595	124.56648	124.83137
15.6951	15.7018	106	112	461.76864	216.03449	172.86778	160.12954	208.26162	161.09080	207.70576	427.82041	1208.3097	480.54110	377.95751	410.78815	385.41969	373.41433	384.83100	409.08576	405.24702	407.09015	399.54305	401.73399	390.77853	392.20796	124.84990	124.63095	124.89395
15.7018	15.7085	82	109	462.01982	216.15053	172.96240	160.22048	208.37790	161.17754	207.81849	428.05335	1208.9722	480.80058	378.16383	411.07064	385.63572	373.61895	385.03614	409.30907	405.47205	407.32317	399.81886	401.94680	390.99892	392.40765	124.91366	124.69555	124.95651
15.7085	15.7152	85	86	462.27373	216.26901	173.05879	160.31079	208.49388	161.26593	207.93451	428.28773	1209.6366	481.06377	378.37097	411.35529	385.85386	373.82413	385.24057	409.53380	405.69833	407.55796	400.08574	402.16058	391.21908	392.60863	124.97503	124.76228	125.01862
15.7152	15.7219	92	80	462.52826	216.38804	173.15558	160.40096	208.60980	161.35470	208.05128	428.52245	1210.3015	481.32778	378.57830	411.64045	386.07250	374.02946	385.44484	409.75886	405.92490	407.79316	400.35063	402.37459	391.43919	392.80990	125.03587	124.82948	125.08062
15.7219	15.7286	95	86	462.80072	216.51623	173.26058	160.49827	208.73447	161.45200	208.17798	428.77635	1211.0125	481.61202	378.80351	411.93834	386.30800	374.25142	385.66771	410.00196	406.17165	408.04700	400.64098	402.60887	391.67586	393.03007	125.10549	124.90380	125.14962
15.7286	15.7353	110	80	463.07227	216.64409	173.36524	160.59509	208.85878	161.54910	208.30418	429.02943	1211.7216	481.89518	379.02783	412.23594	386.54269	374.47263	385.88975	410.24422	406.41749	408.29995	400.93011	402.84228	391.91163	393.24934	125.17421	124.97789	125.21822
15.7353	15.7420	149	79	463.32433	216.76364	173.46175	160.68279	208.97456	161.63942	208.41981	429.26330	1212.3867	482.15601	379.23293	412.52381	386.75957	374.67674	386.09288	410.46788	406.64270	408.53342	401.19239	403.05547	392.12887	393.44889	125.22843	125.04580	125.27872
15.7420	15.7487	171	102	463.57155	216.88126	173.55685	160.76939	209.08789	161.72851	208.53358	429.49341	1213.0395	482.41332	379.43508	412.80875	386.97306	374.87765	386.29295	410.68786	406.86453	408.76343	401.45163	403.26503	392.34232	393.64463	125.28322	125.11270	125.33896
15.7487	15.7554	165	76	463.80141	216.99202	173.64685	160.85201	209.19250	161.81318	208.64066	429.70999	1213.6484	482.65792	379.62661	413.08309	387.17435	375.06707	386.48204	410.89464	407.07419	408.98098	401.69993	403.46152	392.54222	393.82677	125.34001	125.17604	125.39828
15.7554	15.7621	153	93	464.03246	217.10333	173.73600	160.93392	209.29833	161.89693	208.74766	429.92648	1214.2602	482.90309	379.81793	413.36072	387.37548	375.25576	386.67064	411.10156	407.28291	409.19873	401.94952	403.65822	392.74327	394.00956	125.39582	125.23904	125.45704
15.7621	15.7688	169	114	464.26573	217.21570	173.82364	161.01454	209.40639	161.97900	208.85455	430.14285	1214.8775	483.14935	380.00892	413.64444	387.57636	375.44314	386.85842	411.30878	407.48998	409.41689	402.20151	403.85535	392.94645	394.19357	125.44985	125.30145	125.51477
15.7688	15.7755	152	101	464.42586	217.29380	173.88554	161.07108	209.48072	162.03698	208.92871	430.29377	1215.3041	483.32409	380.14138	413.86366	387.71818	375.57409	386.98683	411.45251	407.63512	409.57204	402.38772	403.99016	393.09145	394.31600	125.48364	125.34532	125.55406
15.7755	15.7822	205	81	464.50925	217.33594	173.92044	161.10233	209.51964	162.06968	208.96853	430.37600	1215.5308	483.42375	380.21241	414.01517	387.79804	375.64580	387.05296	411.52964	407.71528	409.66107	402.50488	404.05958	393.17540	394.37379	125.49620	125.36971	125.57401
15.7822	15.7889	240	100	464.40463	217.29174	173.88289	161.06780	209.47402	162.03522	208.92349	430.28276	1215.2597	483.32587	380.12842	413.99405	387.71944	375.56435	386.96165	411.43985	407.63049	409.58333	402.45959	403.96494	393.09946	394.27133	125.46231	125.34254	125.54338
15.7889	15.7956	311	104	464.18601	217.19516	173.80142	160.99340	209.37713	161.96002	208.82700	430.08312	1214.6868	483.10820	379.95043	413.86825	387.54474	375.39002	386.77487	411.24885	407.44566	409.40446	402.31579	403.77082	392.92658	394.07169	125.40025	125.28410	125.48209
15.7956	15.8023	380	109	463.95074	217.08833	173.71491	160.91282	209.27247	161.87939	208.72330	429.87047	1214.0825	482.87133	379.75967	413.73910	387.35738	375.20116	386.57404	411.04275	407.24420	409.21261	402.15921	403.56404	392.74198	393.85566	125.33243	125.22085	125.41772
15.8023	15.8090	464	81	463.71015	216.97823	173.62681	160.83027	209.16534	161.79703	208.61729	429.65368	1213.4683	482.62834	379.56484	413.60890	387.16597	375.00765	386.36874	410.83183	407.03743	409.01661	401.99856	403.35324	392.55364	393.63440	125.26277	125.15606	125.35236
15.8090	15.8157	474	106	463.47676	216.87244	173.54161	160.75145	209.06137	161.71842	208.51457	429.44458	1212.8681	482.39571	379.37846	413.47234	386.98144	374.82406	386.17287	410.62973	406.83811	408.82729	401.84955	403.14809	392.37115	393.42100	125.19716	125.09466	125.28859
15.8157	15.8224	497	92	463.24461	216.76737	173.45690	160.67319	208.95801	161.64036	208.41244	429.23679	1212.2709	482.16463	379.19335	413.33543	386.79808	374.64193	385.97846	410.42904	406.64004	408.63917	401.70224	402.94398	392.18972	393.20885	125.13212	125.03377	125.22513
15.8224	15.8291	494	111	463.02715	216.66981	173.37809	160.59905	208.86419	161.56637	208.31783	429.04373	1211.7226	481.94589	379.01814	413.21598	386.62817	374.47068	385.79626	410.24213	406.45562	408.46645	401.56615	402.75481	392.02230	393.00944	125.07100	124.97710	125.16701
15.8291	15.8358	450	93	462.81095	216.57262	173.29967	160.52546	208.77023	161.49293	208.22363	428.85169	1211.1752	481.72873	378.84435	413.09689	386.45892	374.30045	385.61412	410.05607	406.27233	408.29441	401.43020	402.56619	391.85595	392.81068	125.01067	124.92063	125.10897
15.8358	15.8425	415	106	462.60126	216.47730	173.22327	160.45471	208.67544	161.42229	208.13146	428.66478	1210.6322	481.51978	378.67786	412.97954	386.29293	374.13548	385.43211	409.87434	406.09483	408.12580	401.29493	402.38034	391.69513	392.61514	124.95443	124.86515	125.05131
15.8425	15.8492	518	104	462.39197	216.38209	173.14667	160.38417	208.58202	161.35147	208.03931	428.47742	1210.0909	481.31008	378.51086	412.86812	386.12645	373.96996	385.25058	409.69296	405.91798	407.95685	401.16342	402.19455	391.53393	392.42051	124.89815	124.80988	124.99390
15.8492	15.8559	519	90	462.18375	216.28719	173.06959	160.31411	208.49195	161.28023	207.94725	428.28905	1209.5535	481.09864	378.34267	412.77094	385.95887	373.80318	385.07025	409.51246	405.74272	407.78710	401.04098	402.00899	391.37187	392.22812	124.84177	124.75516	124.93712
15.8559	15.8626	492	105	461.97269	216.19198	172.99264	160.24277	208.39975	161.20906	207.85551	428.10050	1209.0201	480.88700	378.17468	412.66932	385.79164	373.63814	384.88699	409.33166	405.56519	407.61889	400.91395	401.82398	391.21072	392.03867	124.78600	124.70011	124.88012
15.8626	15.8693	434	94	461.75779	216.09635	172.91586	160.16969	208.30468	161.13799	207.76418	427.91169	1208.4918	480.67506	378.00695	412.56174	385.62486	373.47540	384.69977	409.15040	405.38460	407.45271	400.78076	401.63965	391.05073	391.85312	124.73101	124.64462	124.82283
15.8693	15.8760	351	95	461.54483	216.00128	172.83974	160.09867	208.21188	161.06733	207.67163	427.72363	1207.9587	480.46384	377.84000	412.45296	385.45810	373.31067	384.51695	408.96926	405.20613	407.28694	400.65278	401.45468	390.88987	391.67072	124.67596	124.58978	124.76528
15.8760	15.8827	251	90	461.33343	215.90666	172.76414	160.02928	208.12087	160.99702	207.57813	427.53622	1207.4219	480.25322	377.67371	412.34328	385.29141	373.14445	384.33761	408.78825	405.02936	407.12153	400.52887	401.26926	390.72836	391.49080	124.62089	124.53547	124.70753
15.8827	15.8894	222	82	461.11435	215.81160	172.68694	159.95774	208.02875	160.92547	207.48673	427.34788	1206.8857	480.04190	377.50566	412.23923	385.12451	372.97942	384.15348	408.60770	404.85698	406.95925	400.40498	401.08280	390.56764	391.31137	124.56598	124.48014	124.65056
15.8894	15.8961	176	87	460.89191	215.71633	172.60903	159.88524	207.93613	160.85337	207.39622	427.15911	1206.3497	479.83023	377.33683	412.13762	384.95749	372.81489	383.96726	408.42731	404.68649	406.79831	400.28108	400.89587	390.40724	391.13212	124.51113	124.42435	124.59392
15.8961	15.9028	158	78	460.66349	215.61648	172.52996	159.81149	207.83789	160.77904	207.29854	426.96286	1205.7932	479.60908	377.16217	412.02457	384.78310	372.64322	383.77677	408.23908	404.50706	406.62941	400.15080	400.70153	390.23916	390.94564	124.45403	124.36705	124.53417
15.9028	15.9095	159	93	460.43389	215.51572	172.45068	159.73749	207.73851	160.70427	207.19941	426.76511	1205.2326	479.38603	376.98635	411.90921	384.60723	372.47012	383.58544	408.04929	404.32584	406.45892	400.01924	400.50571	390.06954	390.75771	124.39650	124.30946	124.47379
15.9095	15.9162	131	102	460.19178	215.41480	172.36680	159.66102	207.64069	160.62786	207.10223	426.56367	1204.6635	479.16067	376.80824	411.80149	384.43036	372.29556	383.39050	407.85714	404.14806	406.27766	399.88161	400.30261	389.89742	390.56763	124.33770	124.25192	124.41436
15.9162	15.9229	121	89	459.95110	215.31429	172.28362	159.58491	207.54326	160.55192	207.00551	426.36333	1204.0982	478.93642	376.63126	411.69430	384.25444	372.12189	383.19652	407.66609	403.97154	406.09666	399.74438	400.10036	389.72639	390.37855	124.27925	124.19458	124.35510
15.9229	15.9296	154	97	459.72767	215.21757	172.20844	159.51287	207.44898	160.48072	206.91248	426.17428	1203.5716	478.72323	376.46539	411.58955	384.08768	371.95687	383.01247	407.48591	403.80541	405.92169	399.61291	399.90827	389.56633	390.19941	124.22439	124.13899	124.29713
15.9296	15.9363	164	89	459.50957	215.12226	172.13320	159.44166	207.35558	160.41020	206.82051	425.98760	1203.0485	478.51285	376.30242	411.48650	383.92280	371.79381	382.83046	407.30758	403.64072	405.74841	399.48378	399.71795	389.40785	390.02173	124.17007	124.08423	124.24019
15.9363	15.9430	189	95	459.30877	215.03156	172.05772	159.37310	207.26498	160.34187	206.73196	425.80854	1202.5364	478.31151	376.14888	411.38896	383.76396	371.63708	382.65499	407.13524	403.48064	405.58056	399.36226	399.53329	389.25448	389.84874	124.11750	124.03218	124.18662
15.9430	15.9497	222	120	459.11286	214.94016	171.98301	159.30468	207.17492	160.27331	206.64310	425.62856	1202.0230	478.10845	375.99547	411.29464	383.60527	371.48023	382.47866	406.96276	403.32154	405.41270	399.24332	399.34946	389.10146	389.67662	124.06523	123.97995	124.13245
15.9497	15.9564	360	111	458.92538	214.84760	171.90965	159.23651	207.08580	160.20438	206.55372	425.44706	1201.5074	477.90246	375.84231	411.20586	383.44687	371.32322	382.30088	406.79008	403.16417	405.24486	399.12884	399.16707	388.94908	389.50601	124.01350	123.92740	124.07729
15.9564	15.9631	470	90	458.73891	214.75563	171.83584	159.16761	206.99547	160.13510	206.46439	425.26641	1200.9988	477.69873	375.68915	411.11621	383.28852	371.16604	382.12509	406.61835	403.00602	405.07741	399.00923	398.98475	388.79649	389.33573	123.96145	123.87502	124.02291
15.9631	15.9698	592	120	458.55340	214.66425	171.76157	159.09799	206.90392	160.06548	206.37510	425.08657	1200.4969	477.49721	375.53598	411.02570	383.13019	371.00867	381.95125	406.44755	402.84710	404.91031	398.88454	398.80247	388.64367	389.16575	123.90907	123.82280	123.96930
15.9698	15.9765	883	121	458.36859	214.57234	171.68738	159.02909	206.81184	159.99739	206.28559	424.90670	1199.9898	477.29362	375.38274	410.94476	382.97206	370.85285	381.77468	406.27583	402.68950	404.74329	398.76389	398.62037	388.49117	388.99572	123.85650	123.77096	123.91528
15.9765	15.9832	1050	120	458.18421	214.48014	171.61326	158.96061	206.71949	159.93019	206.19598	424.72685	1199.4798	477.08889	375.22949	410.86929	382.81407	370.69794	381.59659	406.10363	402.53269	404.57635	398.64556	398.43843	388.33889	388.82568	123.80382	123.71935	123.86104
15.9832	15.9899	1236	123	458.00084	214.38876	171.53887	158.89085	206.62833	159.86083	206.10747	424.54722	1198.9804	476.88466	375.07484	410.77979	382.65696	370.54181	381.42116	405.93302	402.37564	404.41043	398.52671	398.25747	388.18796	388.65611	123.75213	123.66739	123.80777
15.9899	15.9966	1236	111	457.81775	214.29762	171.46440	158.82071	206.53752	159.79083	206.01928	424.36764	1198.4840	476.68055	374.91975	410.68612	382.50009	370.38529	381.24650	405.76285	402.21849	404.24480	398.40770	398.07678	388.03742	388.48666	123.70072	123.61531	123.75478
15.9966	16.0033	1202	132	457.63446	214.20503	171.39009	158.74840	206.44628	159.72241	205.92951	424.18904	1197.9807	476.47735	374.76581	410.60948	382.34360	370.22999	381.07080	405.59281	402.06237	404.07935	398.29077	397.89998	387.88623	388.31777	123.64891	123.56413	123.70025
16.0033	16.0100	1036	121	457.45124	214.11242	171.31578	158.67613	206.35444	159.65418	205.83953	424.01056	1197.4766	476.27427	374.61198	410.53477	382.18720	370.07491	380.89505	405.42281	401.90639	403.91397	398.17403	397.72358	387.73502	388.14901	123.59708	123.51299	123.64566
16.0100	16.0167	825	100	457.26857	214.02218	171.24059	158.60971	206.24830	159.58593	205.74806	423.83098	1196.9680	476.07022	374.45652	410.46373	382.03058	369.92102	380.71947	405.25238	401.75011	403.74873	398.05560	397.54548	387.58405	387.98079	123.54547	123.46029	123.59319
16.0167	16.0234	787	117	457.10258	213.93934	171.17140	158.54623	206.15111	159.52323	205.66469	423.66701	1196.5066	475.88361	374.31491	410.40990	381.88804	369.78045	380.55757	405.09700	401.60873	403.59834	397.95252	397.38205	387.44739	387.82681	123.49838	123.41246	123.54487
16.0234	16.0301	752	113	457.01512	213.89133	171.13037	158.49647	206.09604	159.48661	205.61950	423.57646	1196.2670	475.77905	374.23846	410.43742	381.81173	369.70249	380.46005	405.01245	401.53753	403.51783	397.92183	397.28764	387.37809	387.73985	123.47257	123.38754	123.51611
16.0301	16.0368	876	128	457.11317	213.92970	171.15897	158.51352	206.12723	159.51451	205.65546	423.65717	1196.5112	475.86776	374.31349	410.62823	381.89025	369.77440	380.51778	405.09191	401.62906	403.60083	398.05151	397.35410	387.46569	387.81052	123.49688	123.41239	123.53803
16.0368	16.0435	933	116	457.62654	214.16145	171.34344	158.68020	206.35152	159.68686	205.87312	424.12127	1197.8385	476.38916	374.72769	411.18439	382.31540	370.18183	380.92312	405.53856	402.08489	404.04988	398.54013	397.78072	387.90455	388.23410	123.63339	123.54862	123.67341
16.0435	16.0502	1159	103	458.20867	214.42631	171.54951	158.87378	206.60942	159.88328	206.12154	424.64913	1199.3498	476.98004	375.19829	411.82093	382.79813	370.64577	381.38366	406.04642	402.60073	404.55983	399.08977	398.26727	388.40236	388.71505	123.78858	123.70350	123.82656
16.0502	16.0569	1348	125	458.87768	214.73302	171.78287	159.10135	206.90979	160.11012	206.40883	425.25756	1201.0935	477.65869	375.74019	412.55902	383.35359	371.18113	381.91395	406.63161	403.19239	405.14674	399.71653	398.82955	388.97466	389.26847	123.96736	123.88197	124.00218
16.0569	16.0636	1372	114	459.55154	215.03826	172.01943	159.33313	207.21307	160.33649	206.69611	425.87085	1202.8545	478.34205	376.28616	413.29015	383.91278	371.71980	382.44867	407.22123	403.79005	405.73783	400.34913	399.39652	389.55055	389.82615	124.14691	124.06130	124.18004
16.0636	16.0703	1274	126	460.22943	215.34266	172.25850	159.56816	207.51871	160.56266	206.98360	426.48814	1204.6294	479.02932	376.83549	414.01669	384.47509	372.26126	382.98701	407.81449	404.39251	406.33241	400.98645	399.96733	390.12947	390.38733	124.32716	124.24139	124.35968
16.0703	16.0770	1071	113	460.90947	215.64992	172.50168	159.80405	207.82544	160.78354	207.27435	427.10813	1206.4027	479.71841	377.38537	414.77631	385.03986	372.80289	383.53011	408.40915	404.99469	406.92907	401.62361	400.53837	390.71058	390.95050	124.50881	124.42280	124.53908
16.0770	16.0837	919	107	461.59018	215.95825	172.74645	160.04023	208.13252	161.00221	207.56634	427.72903	1208.1748	480.40804	377.93531	415.54910	385.60546	373.34443	384.07498	409.00421	405.59658	407.52642	402.26053	401.10935	391.29242	391.51431	124.69098	124.60469	124.71833
16.0837	16.0904	742	120	462.27072	216.26327	172.99984	160.27632	208.43951	161.22976	207.86649	428.34931	1209.9450	481.08992	378.48547	416.35698	386.17022	373.88878	384.61136	409.59912	406.19981	408.12337	402.90189	401.68084	391.87408	392.07842	124.87236	124.78641	124.89830
16.0904	16.0971	645	128	462.95076	216.56749	173.25464	160.51223	208.74628	161.45877	208.16793	428.96907	1211.7136	481.76992	379.03530	417.17071	386.73444	374.43328	385.14583	410.19360	406.80288	408.71985	403.54362	402.25203	392.45533	392.64221	125.05348	124.96797	125.07829
16.0971	16.1038	536	118	463.62819	216.86881	173.50797	160.74689	209.05183	161.69118	208.47294	429.58392	1213.4717	482.44073	379.58412	417.98071	387.29649	374.97417	385.68567	410.78560	407.40211	409.31377	404.17921	402.81901	393.03390	393.20392	125.23423	125.14784	125.25646
16.1038	16.1105	441	124	464.30533	217.17056	173.76125	160.98150	209.35725	161.92403	208.77780	430.19850	1215.2293	483.11113	380.13237	418.78687	387.85837	375.51451	386.22403	411.37734	408.00114	409.90751	404.81404	403.38585	393.61232	393.76531	125.41494	125.32770	125.43464
16.1105	16.1172	408	99	464.97736	217.47456	174.01319	161.21488	209.66027	162.15859	209.07949	430.80873	1216.9758	483.77645	380.67366	419.55991	388.41658	376.04849	386.74741	411.96444	408.59637	410.49744	405.44083	403.94950	394.18713	394.32178	125.59456	125.50691	125.61229
16.1172	16.1239	346	105	465.65357	217.78275	174.26653	161.44951	209.96527	162.39452	209.38333	431.42197	1218.7318	484.44809	381.21890	420.31333	388.97819	376.58693	387.27555	412.55524	409.19542	411.09096	406.07427	404.51676	394.76531	394.88147	125.77513	125.68728	125.79098
16.1239	16.1306	317	84	466.34285	218.10376	174.52425	161.68806	210.27644	162.63474	209.69379	432.04469	1220.5176	485.13922	381.77640	421.00783	389.55037	377.13914	387.81834	413.15758	409.80638	411.69564	406.72820	405.09526	395.35406	395.45125	125.95870	125.87123	125.97294
16.1306	16.1373	328	100	467.31221	218.55596	174.88698	162.02410	210.71363	162.97288	210.12991	432.92778	1223.0353	486.12855	382.56218	421.94037	390.35662	377.91703	388.59061	414.00952	410.66405	412.54763	407.62378	405.91564	396.18064	396.25962	126.21830	126.13060	126.23078
16.1373	16.1440	350	102	468.73398	219.22010	175.41933	162.51761	211.35436	163.46917	210.76900	434.23141	1226.7351	487.59949	383.71669	423.25759	391.54095	379.05948	389.73353	415.26461	411.92022	413.79908	408.90977	407.12671	397.39137	397.45335	126.60070	126.51180	126.61117
16.1440	16.1507	359	119	470.09452	219.85623	175.92858	162.98964	211.96784	163.94369	211.38065	435.47720	1230.2776	489.01089	384.82211	424.51620	392.67384	380.15173	390.82037	416.46541	413.12521	414.99635	410.14710	408.28439	398.54947	398.59408	126.96579	126.87680	126.97427
16.1507	16.1574	344	85	471.39876	220.46662	176.41657	163.44191	212.55626	164.39819	211.96707	436.66977	1233.6755	490.36757	385.88238	425.72088	393.75942	381.19780	391.85555	417.61627	414.28319	416.14379	411.33975	409.39296	399.65914	399.68605	127.31494	127.22692	127.32144
16.1574	16.1641	313	96	472.36092	220.91670	176.77683	163.77558	212.99011	164.73398	212.39982	437.54954	1236.1752	491.36875	386.66138	426.61742	394.55975	381.96799	392.60621	418.46656	415.14199	416.98959	412.23506	410.20623	400.47954	400.48823	127.57256	127.48409	127.57721
16.1641	16.1708	252	105	473.13944	221.28072	177.06852	164.04559	213.34098	165.00604	212.75007	438.26138	1238.1926	492.17907	387.28937	427.34852	395.20695	382.59007	393.20416	419.15547	415.84016	417.67346	412.97068	410.86099	401.14465	401.13484	127.78104	127.69136	127.78391
16.1708	16.1775	206	75	473.80953	221.59425	177.31934	164.27811	213.64324	165.23961	213.05146	438.87426	1239.9153	492.87621	387.82958	427.98091	395.76304	383.12537	393.72055	419.74820	416.43956	418.26105	413.60740	411.41803	401.71756	401.68877	127.95989	127.87001	127.96017
16.1775	16.1842	169	88	474.45048	221.89421	177.55918	164.50054	213.93245	165.46284	213.33971	439.46054	1241.5588	493.54291	388.34617	428.58678	396.29463	383.63734	394.21502	420.31509	417.01239	418.82274	414.21754	411.94879	402.26570	402.21778	128.13076	128.04098	128.12824
16.1842	16.1909	127	107	474.89526	222.10254	177.72563	164.65447	214.13309	165.61831	213.53961	439.86862	1242.7094	494.00568	388.69994	429.01698	396.66600	383.98869	394.56627	420.70572	417.41655	419.21162	414.66243	412.31035	402.64772	402.58127	128.24821	128.15844	128.24422
16.1909	16.1976	139	94	475.33401	222.30804	177.88983	164.80631	214.33099	165.77172	213.73680	440.27142	1243.8452	494.46219	389.04856	429.44179	397.03289	384.33507	394.91442	421.09073	417.81558	419.59522	415.10279	412.66662	403.02466	402.93970	128.36406	128.27422	128.35863
16.1976	16.2043	136	94	475.96169	222.60169	178.12495	165.02442	214.61389	165.99065	214.01908	440.84942	1245.4612	495.11552	389.55140	430.03587	397.56175	384.83541	395.42306	421.64215	418.37797	420.14567	415.71200	413.18424	403.56173	403.45798	128.53193	128.44092	128.52362
16.2043	16.2110	149	90	476.59742	222.89905	178.36298	165.24513	214.90052	166.21235	214.30498	441.43460	1247.0997	495.77715	390.06061	430.63730	398.09760	385.34329	395.93855	422.20045	418.94785	420.70312	416.32687	413.70740	404.10553	403.98320	128.70168	128.60988	128.69073
16.2110	16.2177	149	76	477.26964	223.21323	178.61424	165.47768	215.20396	166.44657	214.60727	442.05240	1248.8394	496.47638	390.59870	431.27209	398.66505	385.88505	396.48502	422.78999	419.55157	421.29234	416.96787	414.25585	404.67984	404.53982	128.87994	128.78902	128.86743
16.2177	16.2244	168	82	477.88905	223.50288	178.84602	165.69226	215.48339	166.66253	214.88579	442.62201	1250.4391	497.12088	391.09366	431.85874	399.18826	386.38467	396.98787	423.33314	420.10756	421.83519	417.56317	414.75810	405.20970	405.05135	129.04440	128.95380	129.03019
16.2244	16.2311	171	101	478.39880	223.74158	179.03734	165.86954	215.71294	166.84057	215.11495	443.09156	1251.7479	497.65175	391.49904	432.34546	399.61962	386.79681	397.40013	423.77994	420.56441	422.28178	418.06365	415.16437	405.64727	405.46922	129.18024	129.08878	129.16399
16.2311	16.2378	156	81	478.78197	223.92100	179.18089	166.00259	215.88581	166.97430	215.28731	443.44341	1252.7196	498.05071	391.80005	432.71540	399.94346	387.10603	397.70717	424.11422	420.90854	422.61631	418.45086	415.45989	405.97734	405.77938	129.28175	129.18998	129.26257
16.2378	16.2445	217	83	479.01466	224.02995	179.26763	166.08307	215.99128	167.05537	215.39216	443.65533	1253.2906	498.29287	391.97702	432.94651	400.13952	387.29292	397.88916	424.31474	421.11865	422.81764	418.70339	415.62381	406.17963	405.96152	129.34248	129.25101	129.31929
16.2445	16.2512	189	100	479.39192	224.20659	179.40888	166.21386	216.16148	167.18710	215.56180	444.00133	1254.2536	498.68559	392.26783	433.30925	400.45701	387.59588	398.19106	424.64278	421.45590	423.14701	419.08697	415.90802	406.50444	406.26690	129.44231	129.35128	129.41740
16.2512	16.2579	206	101	479.86910	224.43002	179.58781	166.37944	216.37643	167.35386	215.77622	444.44000	1255.4876	499.18239	392.63733	433.76299	400.85845	387.97907	398.57587	425.05897	421.88103	423.56489	419.56117	416.27537	406.91395	406.65746	129.56918	129.47868	129.54412
16.2579	16.2646	219	91	480.42722	224.69124	179.79662	166.57306	216.62796	167.54834	216.02721	444.95346	1256.9197	499.76310	393.07730	434.28857	401.32543	388.42685	399.02783	425.54558	422.37826	424.05342	420.10025	416.72197	407.39180	407.11624	129.71763	129.62851	129.68893
16.2646	16.2713	192	92	481.01609	224.96681	180.01679	166.77734	216.89338	167.75334	216.29210	445.49533	1258.4272	500.37569	393.54403	434.84146	401.81730	388.89918	399.50529	426.05894	422.90287	424.56878	420.66401	417.19862	407.89561	407.60092	129.87427	129.78687	129.84063
16.2713	16.2780	226	81	481.85145	225.35761	180.32940	167.06674	217.27025	168.04492	216.66781	446.26583	1260.5872	501.24514	394.19889	435.61851	402.51733	389.56972	400.18757	426.79294	423.64162	425.30252	421.46034	417.88770	408.60908	408.29479	130.09670	130.01197	130.06335
16.2780	16.2847	213	84	482.72646	225.76693	180.65687	167.36984	217.66504	168.35042	217.06135	447.07311	1262.8523	502.15591	394.88400	436.43161	403.25084	390.27214	400.90280	427.56243	424.41481	426.07139	422.29406	418.61095	409.35627	409.02230	130.32972	130.24781	130.29751
16.2847	16.2914	242	101	483.62920	226.18912	180.99492	167.68341	218.07188	168.66528	217.46706	447.90463	1265.1794	503.09488	395.59752	437.26956	404.00457	390.99655	401.64114	428.35419	425.21495	426.86440	423.14177	419.37164	410.12698	409.77354	130.57174	130.49046	130.53415
16.2914	16.2981	212	96	484.42729	226.56237	181.29378	167.96057	218.43163	168.94362	217.82577	448.63921	1267.2314	503.92501	396.22649	438.01286	404.67094	391.63656	402.29259	429.05335	425.92302	427.56506	423.89853	420.04343	410.80896	410.43602	130.78540	130.70483	130.74301
16.2981	16.3048	229	101	484.52343	226.60748	181.32981	167.99352	218.47551	168.97712	217.86928	448.72360	1267.4381	504.02510	396.28811	438.12135	404.75145	391.71048	402.36111	429.13150	426.01345	427.64624	424.04592	420.11842	410.89593	410.50312	130.80868	130.72950	130.76565
16.3048	16.3115	200	91	484.59968	226.64320	181.35841	168.01973	218.51020	169.00373	217.90363	448.78981	1267.5978	504.10446	396.33528	438.21183	404.81545	391.76792	402.41296	429.19151	426.08587	427.70991	424.17859	420.17630	410.96617	410.55356	130.82654	130.74881	130.78208
16.3115	16.3182	202	103	484.62025	226.65261	181.36624	168.02708	218.51912	169.01106	217.91233	448.80509	1267.6258	504.12579	396.34201	438.25176	404.83323	391.77925	402.41812	429.20070	426.10785	427.72454	424.26985	420.18630	410.98956	410.55734	130.82922	130.75306	130.78112
16.3182	16.3249	212	80	484.50063	226.59667	181.32149	167.98568	218.46510	168.96942	217.85837	448.69032	1267.2792	504.00139	396.23775	438.16504	404.73343	391.67624	402.30687	429.08581	426.00770	427.61523	424.23302	420.07460	410.89509	410.44223	130.79453	130.71930	130.74257
16.3249	16.3316	200	102	484.16853	226.44165	181.19706	167.87037	218.31570	168.85356	217.70945	448.37843	1266.3645	503.65611	395.96525	437.88635	404.45543	391.39993	402.01916	428.78283	425.72247	427.31808	424.00208	419.77846	410.62200	410.14691	130.70318	130.62792	130.64700
16.3316	16.3383	180	69	483.95710	226.34300	181.11794	167.79696	218.22048	168.77992	217.61448	448.17844	1265.7705	503.43658	395.79265	437.71693	404.27860	391.22223	401.83235	428.58696	425.54271	427.12789	423.89010	419.58756	410.45241	409.95359	130.64384	130.56926	130.58399
16.3383	16.3450	163	75	483.85157	226.29380	181.07858	167.76029	218.17280	168.74333	217.56685	448.07662	1265.4578	503.32739	395.70769	437.64342	404.19053	391.13103	401.73403	428.48505	425.45550	427.03155	423.88257	419.48901	410.37364	409.84974	130.61259	130.53931	130.54953
16.3450	16.3517	137	87	483.84564	226.29122	181.07659	167.75853	218.17017	168.74133	217.56430	448.06536	1265.3918	503.32150	395.70308	437.65967	404.18533	391.12139	401.71768	428.47081	425.45533	427.02279	423.95037	419.47726	410.38075	409.82993	130.60828	130.53578	130.54210
16.3517	16.3584	100	88	483.88954	226.31197	181.09329	167.77422	218.19009	168.75665	217.58431	448.09940	1265.4491	503.36729	395.73865	437.72081	404.22158	391.15255	401.74232	428.50042	425.49870	427.05784	424.05583	419.50894	410.43082	409.85217	130.61745	130.54546	130.54818
16.3584	16.3651	99	107	483.99380	226.36091	181.13220	167.81035	218.23720	168.79311	217.63130	448.18882	1265.6471	503.47599	395.82471	437.83667	404.30877	391.22967	401.81753	428.58422	425.59423	427.14638	424.22198	419.59145	410.53296	409.92506	130.64360	130.57185	130.56803
16.3651	16.3718	90	85	484.11301	226.41684	181.17660	167.85154	218.29104	168.83480	217.68498	448.29195	1265.8800	503.60027	395.92326	437.96606	404.40857	391.31816	401.90527	428.68145	425.70268	427.24817	424.40312	419.68654	410.64799	410.01049	130.67394	130.60238	130.59130
16.3718	16.3785	89	90	484.46415	226.58084	181.30823	167.97348	218.44918	168.95715	217.84266	448.61075	1266.7401	503.96543	396.21031	438.30523	404.70147	391.59297	402.18559	428.98230	426.01874	427.55435	424.77741	419.98417	410.95793	410.29384	130.76925	130.69441	130.68078
16.3785	16.3852	89	86	484.79982	226.73766	181.43410	168.09007	218.60038	169.07412	217.99341	448.91514	1267.5592	504.31454	396.48471	438.63045	404.98145	391.85545	402.45308	429.26930	426.32133	427.84693	425.13792	420.26851	411.25462	410.56418	130.86035	130.78227	130.76615
16.3852	16.3919	72	73	484.71123	226.69695	181.40114	168.05940	218.56083	169.04366	217.95390	448.82475	1267.2436	504.22312	396.41328	438.57217	404.90741	391.77827	402.36831	429.18019	426.24907	427.76579	425.13242	420.18517	411.19117	410.47517	130.83435	130.75672	130.73452
16.3919	16.3986	82	86	484.68597	226.68567	181.39179	168.05070	218.54974	169.03512	217.94273	448.79225	1267.0989	504.19739	396.39349	438.57111	404.88618	391.75202	402.33622	429.14689	426.23189	427.74038	425.18195	420.15655	411.18112	410.43946	130.82568	130.74827	130.72046
16.3986	16.4053	69	96	484.90870	226.78967	181.47494	168.12802	218.65007	169.11248	218.04257	448.98643	1267.6240	504.42890	396.57590	438.79407	405.07177	391.92521	402.51042	429.33205	426.43043	427.93314	425.44701	420.34222	411.38016	410.61247	130.88486	130.80679	130.77521
16.4053	16.4120	79	92	485.25341	226.95085	181.60392	168.24760	218.80555	169.23265	218.19743	449.29441	1268.4681	504.78758	396.85803	439.12747	405.35926	392.19585	402.78553	429.62512	426.73763	428.23374	425.82107	420.63403	411.68267	410.88836	130.97707	130.89782	130.86241
16.4120	16.4187	83	83	485.83747	227.22425	181.82286	168.45010	219.06925	169.43680	218.46024	449.82562	1269.9382	505.39581	397.33582	439.67760	405.84670	392.65770	403.25862	430.12990	427.25807	428.74592	426.40909	421.13407	412.18819	411.36609	131.13408	131.05267	131.01324
16.4187	16.4254	85	98	486.49582	227.53222	182.06931	168.67835	219.36623	169.66654	218.75626	450.42812	1271.6230	506.08093	397.87455	440.29504	406.39611	393.17918	403.79349	430.70011	427.84267	429.32340	427.06065	421.69745	412.75669	411.90609	131.31030	131.22790	131.18452
16.4254	16.4321	90	81	487.23695	227.87871	182.34640	168.93531	219.70031	169.92479	219.08928	451.11005	1273.5470	506.85171	398.48116	440.98747	407.01454	393.76707	404.39720	431.34323	428.49874	429.97365	427.78296	422.33139	413.39538	412.51549	131.50791	131.42582	131.37859
16.4321	16.4388	79	90	488.36209	228.40492	182.76749	169.32542	220.20770	170.31719	219.59538	452.14752	1276.4813	508.02215	399.40146	442.02723	407.95357	394.66895	405.31935	432.32485	429.49212	430.96284	428.84989	423.29871	414.35884	413.44821	131.81026	131.72684	131.67637
16.4388	16.4455	62	93	489.73518	229.04716	183.28154	169.80151	220.82699	170.79620	220.21324	453.41455	1280.0679	509.45064	400.52429	443.29122	409.09959	395.77357	406.44712	433.52502	430.70327	432.17086	430.13928	424.48128	415.53199	414.58970	132.18022	132.09444	132.04111
16.4455	16.4522	83	66	491.33374	229.79526	183.87992	170.35590	221.54782	171.35383	220.93191	454.89134	1284.2496	511.11401	401.83247	444.76041	410.43459	397.05573	407.76246	434.92342	432.11590	433.57823	431.62105	425.86006	416.89747	415.92138	132.61018	132.52283	132.46551
16.4522	16.4589	77	92	493.01211	230.58082	184.50814	170.93800	222.30459	171.93929	221.68627	456.44239	1288.6418	512.86052	403.20626	446.30223	411.83649	398.40074	409.14419	436.39198	433.59984	435.05614	433.17100	427.30829	418.33103	417.32039	133.06137	132.97274	132.91103
16.4589	16.4656	88	76	495.08496	231.55009	185.28372	171.65661	223.23959	172.66221	222.61868	458.35990	1294.0588	515.01690	404.90136	448.20277	413.56665	400.06613	410.85307	438.20796	435.43632	436.88238	435.08323	429.09760	420.09845	419.05126	133.62001	133.52847	133.46484
16.4656	16.4723	74	83	497.21061	232.54395	186.07903	172.39349	224.19843	173.40353	223.57492	460.32647	1299.6129	517.22814	406.63948	450.15139	415.34074	401.77437	412.60573	440.07035	437.32010	438.75529	437.04405	430.93257	421.91057	420.82657	134.19304	134.09835	134.03313
16.4723	16.4790	72	87	498.96982	233.36715	186.73766	173.00383	224.99133	174.01747	224.36566	461.95424	1304.2134	519.05924	408.07937	451.77378	416.81035	403.18192	414.05330	441.60075	438.88730	440.30896	438.67882	432.45082	423.41289	422.29436	134.66602	134.57045	134.49918
16.4790	16.4857	57	79	500.68187	234.16812	187.37849	173.59766	225.76296	174.61477	225.13515	463.53793	1308.6902	520.84084	409.48029	453.35314	418.24021	404.55151	415.46180	443.08827	440.41366	441.82145	440.27094	433.92781	424.87481	423.72219	135.12600	135.02976	134.95280
16.4857	16.4924	66	103	502.11969	234.83977	187.91575	174.09546	226.41091	175.11529	225.78106	464.86514	1312.4474	522.33446	410.65441	454.68236	419.43889	405.70026	416.64310	444.32617	441.70276	443.09454	441.61525	435.16484	426.10184	424.91751	135.51030	135.41467	135.33406
16.4924	16.4991	71	92	503.52846	235.49741	188.44188	174.58294	227.04508	175.60554	226.41342	466.16491	1316.1249	523.79710	411.80423	455.98474	420.61251	406.82422	417.79857	445.53924	442.96561	444.34185	442.93768	436.37578	427.30367	426.08728	135.88689	135.79106	135.70748
16.4991	16.5058	57	101	504.86155	236.11855	188.93898	175.04353	227.64337	176.06904	227.01047	467.39318	1319.5947	525.17900	412.89070	457.21715	421.72082	407.88358	418.88672	446.68759	444.16007	445.52196	444.20301	437.51874	428.43981	427.19046	136.24340	136.14529	136.06044
16.5058	16.5125	66	81	506.03092	236.66106	189.37314	175.44585	228.16625	176.47366	227.53200	468.46581	1322.6271	526.38583	413.83972	458.29700	422.68849	408.80673	419.83709	447.69150	445.20494	446.55231	445.31672	438.51628	429.43298	428.15235	136.55440	136.45432	136.36639
16.5125	16.5192	57	94	506.96563	237.09091	189.71711	175.76468	228.58110	176.79392	227.94533	469.31540	1325.0326	527.34179	414.59178	459.15818	423.45464	409.53471	420.59003	448.48843	446.03543	447.36805	446.21308	439.30544	430.22126	428.91178	136.80020	136.69861	136.60502
16.5192	16.5259	52	91	507.81616	237.48056	190.02885	176.05353	228.95691	177.08458	228.32014	470.08572	1327.2116	528.20863	415.27354	459.94204	424.14945	410.19386	421.26948	449.21393	446.79105	448.10726	447.04402	440.01972	430.93719	429.59587	137.02353	136.91969	136.82331
16.5259	16.5326	65	79	508.59739	237.83709	190.31406	176.31770	229.30057	177.35085	228.66321	470.79075	1329.2040	529.00204	415.89740	460.66222	424.78549	410.79630	421.88837	449.88062	447.48504	448.78345	447.82118	440.67231	431.59353	430.21787	137.22836	137.12165	137.02488
16.5326	16.5393	49	86	508.86918	237.95483	190.40833	176.40505	229.41389	177.43854	228.77605	471.02241	1329.8615	529.26381	416.10345	460.91978	424.99427	410.98027	422.08535	450.10002	447.72655	449.00813	448.14737	440.88256	431.81562	430.41132	137.29417	137.18568	137.08547
16.5393	16.5460	63	83	508.90282	237.96093	190.41333	176.40974	229.41954	177.44274	228.78126	471.03278	1329.8949	529.27705	416.11419	460.96108	425.00330	410.96862	422.08510	450.11033	447.75656	449.02175	448.26276	440.88601	431.83470	430.40444	137.29497	137.18523	137.08014
16.5460	16.5527	61	93	507.72368	237.40339	189.96665	175.99601	228.88217	177.02697	228.24516	469.92804	1326.7812	528.03645	415.13879	459.90967	424.00536	409.97855	421.08346	449.05553	446.72502	447.97124	447.33096	439.84551	430.83113	429.37543	136.96964	136.85963	136.75165
16.5527	16.5594	62	97	506.27052	236.71849	189.41791	175.48775	228.22211	176.51632	227.58677	468.57137	1322.9564	526.51257	413.94059	458.61137	422.77992	408.76744	419.85558	447.76009	445.45362	446.68030	446.16250	438.56915	429.59650	428.11550	136.57063	136.46058	136.35015
16.5594	16.5661	67	97	503.66449	235.49338	188.43812	174.57997	227.04061	175.60280	226.40901	466.14706	1316.1097	523.78831	411.79935	456.26320	420.59140	406.61481	417.67157	445.44366	443.16282	444.37038	443.96473	436.29200	427.38258	425.88151	135.86205	135.74838	135.63831
16.5661	16.5728	63	88	500.89967	234.19424	187.39908	173.61728	225.78777	174.63405	225.16007	463.57625	1308.8494	520.89937	409.52862	453.77115	418.27079	404.33572	415.35638	442.98718	440.73223	441.92068	441.62759	433.87770	425.03425	423.51368	135.11070	134.99337	134.88358
16.5728	16.5795	74	83	497.07264	232.40139	185.96406	172.28774	224.05971	173.29702	223.43638	460.02758	1298.8323	516.91135	406.39319	450.31949	415.06873	401.22407	412.16558	439.59620	437.36901	438.53822	438.36813	430.54854	421.78869	420.25175	134.07254	133.95325	133.84119
16.5795	16.5862	69	85	493.20014	230.58708	184.51210	170.94248	222.31081	171.94409	221.69204	456.43653	1288.6949	512.87583	403.22055	446.82637	411.82829	398.07854	408.93654	436.16479	433.96554	435.11536	435.06625	427.17994	418.50438	416.95101	133.02239	132.90031	132.78761
16.5862	16.5929	76	88	489.17517	228.70080	183.00334	169.54454	220.49197	170.53788	219.87841	452.70334	1278.1542	508.68098	399.92311	443.19418	408.45905	394.82005	405.57922	432.59782	430.42702	431.55699	431.62129	423.67908	415.09009	413.52014	131.93213	131.80427	131.69675
16.5929	16.5996	89	110	485.10947	226.79587	181.47926	168.13247	218.65561	169.11744	218.04681	448.93268	1267.5078	504.44421	396.59234	439.52499	405.05620	391.52998	402.18930	428.99499	426.85177	427.96302	428.14586	420.14307	411.64131	410.05584	130.83076	130.69861	130.59375
16.5996	16.6063	96	84	480.96667	224.85562	179.92616	166.69364	216.78601	167.67006	216.18117	445.09106	1256.6614	500.12801	393.19844	435.78573	401.58964	388.18001	398.73753	425.32423	423.20702	424.30159	424.61248	416.54047	408.12719	406.52819	129.70837	129.57463	129.46784
16.6063	16.6130	90	76	476.85264	222.92900	178.38417	165.26584	214.93014	166.23331	214.32864	441.27712	1245.8943	495.84241	389.82920	432.07319	398.14784	384.85407	395.30951	421.67993	419.58879	420.66607	421.12249	412.96438	404.63833	403.02537	128.59363	128.45880	128.35001
16.6130	16.6197	100	101	472.76642	221.01555	176.85296	163.84879	213.08761	164.80688	212.48881	437.49003	1235.2043	491.58646	386.48388	428.38655	394.73004	381.55141	391.90444	418.06130	415.99629	417.05562	417.67607	409.41404	401.17397	399.54658	127.48629	127.35086	127.24001
16.6197	16.6264	82	88	468.84502	219.17909	175.38349	162.48978	211.32489	163.43744	210.72310	433.85500	1224.9412	487.50176	383.27275	424.84842	391.44991	378.38173	388.63714	414.58784	412.54777	413.59078	414.37827	406.00522	397.84924	396.20663	126.42378	126.28764	126.17477
16.6264	16.6331	69	105	465.02769	217.39123	173.95302	161.16739	209.61244	162.10399	209.00420	430.31601	1214.9477	483.52520	380.14637	421.40409	388.25671	375.29600	385.45684	411.20606	409.19017	410.21787	411.17411	402.68580	394.61269	392.95438	125.38958	125.25264	125.13779
16.6331	16.6398	80	96	461.20006	215.59937	172.51940	159.84312	207.89400	160.76790	207.28179	426.77007	1204.9353	479.53977	377.01323	417.95159	385.05637	372.20312	382.26922	407.81730	405.82546	406.83693	407.97063	399.35986	391.36887	389.69654	124.35269	124.21773	124.09812
16.6398	16.6465	89	79	457.36945	213.80638	171.08489	158.51837	206.17379	159.43108	205.55840	423.22221	1194.9178	475.55184	373.87819	414.49677	381.85402	369.10820	379.07952	404.42661	402.45876	403.45370	404.76766	396.03213	388.12300	386.43719	123.31503	123.18294	123.05767
16.6465	16.6532	80	75	453.91793	212.18965	169.79427	157.32684	204.62069	158.22548	204.00721	420.02307	1185.8839	471.95588	371.05160	411.38362	378.96600	366.31760	376.20232	401.36891	399.42138	400.40289	401.88863	393.03045	385.19752	383.49551	122.38027	122.24994	122.11754
16.6532	16.6599	100	93	450.53897	210.60675	168.53109	156.16066	203.09986	157.04511	202.48894	416.89088	1177.0390	468.43518	368.28419	408.33606	376.13837	363.58542	373.38514	398.37516	396.44738	397.41594	399.07210	390.09139	382.33356	380.61482	121.46511	121.33649	121.19671
16.6599	16.6666	102	95	448.26627	209.54276	167.68327	155.37693	202.07839	156.25245	201.47121	414.78430	1171.0890	466.06790	366.42271	406.29285	374.23732	361.74826	371.48884	396.36198	394.44849	395.40830	397.21836	388.11250	380.41180	378.66919	120.84612	120.72276	120.57318
16.6666	16.6733	93	80	446.10553	208.53118	166.87776	154.63163	201.10699	155.49932	200.50438	412.78115	1165.4316	463.81675	364.65266	404.35103	372.42955	360.00122	369.68512	394.44763	392.54827	393.49908	395.45142	386.23043	378.58469	376.81839	120.25730	120.13924	119.97990
16.6733	16.6800	113	93	444.53829	207.79746	166.29663	154.09010	200.40094	154.95576	199.80742	411.32630	1161.3247	462.18116	363.36728	402.94668	371.11627	358.73183	368.37211	393.05710	391.17105	392.11153	394.14452	384.86156	377.25931	375.47022	119.82832	119.71581	119.54699
16.6800	16.6867	107	83	443.27579	207.20741	165.82930	153.65388	199.83300	154.51980	199.24604	410.15409	1158.0139	460.86326	362.33121	401.82185	370.05775	357.70892	367.31205	391.93638	390.06176	390.99327	393.09023	383.75730	376.19353	374.37930	119.48126	119.37459	119.19585
16.6867	16.6934	133	96	442.74667	206.96313	165.63585	153.47113	199.59746	154.34282	199.01096	409.66208	1156.6193	460.30993	361.89512	401.36981	369.61234	357.27925	366.86076	391.46496	389.59729	390.52310	392.64388	383.28988	375.75256	373.90747	119.33134	119.23118	119.04153
16.6934	16.7001	143	91	442.67465	206.93257	165.61255	153.44784	199.56665	154.32262	198.98232	409.59337	1156.4197	460.23442	361.83290	401.33877	369.54863	357.21801	366.78828	391.39786	389.53416	390.45627	392.60042	383.21740	375.69952	373.82051	119.30375	119.21082	119.01229
16.7001	16.7068	210	85	443.21585	207.18873	165.81748	153.63848	199.81048	154.51274	199.23063	410.09253	1157.8230	460.79991	362.27222	401.87248	369.99698	357.65103	367.22397	391.87313	390.00942	390.93051	393.09739	383.67473	376.16688	374.24990	119.44028	119.35551	119.15086
16.7068	16.7135	273	86	444.18585	207.64674	166.18243	153.97596	200.24915	154.85323	199.66920	410.98819	1160.3468	461.81629	363.06157	402.79860	370.80316	358.43042	368.01475	392.72712	390.86068	391.78232	393.97443	384.50344	376.99632	375.04104	119.69474	119.61567	119.40283
16.7135	16.7202	428	68	445.48964	208.26187	166.67192	154.42773	200.83950	155.31077	200.25588	412.19251	1163.7427	463.18368	364.12339	404.03014	371.88790	359.47946	369.08197	393.87592	392.00463	392.92805	395.14733	385.62124	378.10759	376.11380	120.04102	119.96573	119.74308
16.7202	16.7269	550	95	447.02803	208.98629	167.24972	154.96222	201.53392	155.84928	200.94876	413.61525	1167.7505	464.79868	365.37762	405.47140	373.16849	360.71788	370.34358	395.23244	393.35794	394.28158	396.52875	386.94231	379.41648	377.38234	120.44871	120.37920	120.14870
16.7269	16.7336	818	89	448.66990	209.75893	167.86647	155.53321	202.27424	156.42350	201.68848	415.13433	1172.0280	466.52288	366.71671	407.00519	374.53547	362.03982	371.69092	396.68058	394.80357	395.72675	398.00214	388.35304	380.81253	378.73723	120.88350	120.82063	120.58313
16.7336	16.7403	1167	105	450.51442	210.62570	168.55732	156.17358	203.10684	157.06798	202.51917	416.84277	1176.8374	468.45118	368.22107	408.72363	376.07223	363.52511	373.20663	398.30802	396.42624	397.35014	399.65592	389.93870	382.38003	380.26306	121.37551	121.31610	121.07521
16.7403	16.7470	1609	91	452.40054	211.51181	169.26340	156.82820	203.95839	157.72687	203.36854	418.59010	1181.7560	470.42139	369.75937	410.47999	377.64385	365.04392	374.75691	399.97228	398.08526	399.01011	401.34674	391.56029	383.98273	381.82398	121.87925	121.82267	121.57912
16.7470	16.7537	1994	118	454.80276	212.63794	170.16355	157.66211	205.04296	158.56646	204.45073	420.81761	1188.0236	472.92887	371.72072	412.69989	379.64653	366.98063	376.74321	402.09412	400.19405	401.12676	403.49623	393.63097	386.02508	383.81268	122.52371	122.46921	122.22189
16.7537	16.7604	2493	130	457.24732	213.78372	171.07958	158.51065	206.14649	159.42074	205.55181	423.08418	1194.4014	475.47999	373.71659	414.95729	381.68439	368.95139	378.76587	404.25323	402.33951	403.28054	405.68324	395.73801	388.10316	385.83705	123.17943	123.12711	122.87596
16.7604	16.7671	2542	135	459.91660	215.03373	172.07969	159.43657	207.35019	160.35252	206.75244	425.55679	1201.3617	478.26119	375.89485	417.41207	383.90829	371.10194	380.98367	406.60913	404.67895	405.63016	408.06905	398.03616	390.36965	388.05289	123.89391	123.84478	123.58958
16.7671	16.7738	2278	126	462.66383	216.32034	173.10892	160.38963	208.58929	161.31164	207.98833	428.10220	1208.5278	481.12368	378.13712	419.93939	386.19796	373.31572	383.26584	409.03451	407.08855	408.04907	410.52554	400.40236	392.70307	390.33377	124.63000	124.58368	124.32443
16.7738	16.7805	1889	112	465.66084	217.72421	174.23148	161.42968	209.94188	162.35841	209.33720	430.88095	1216.3538	484.24667	380.58460	422.69923	388.69844	375.73218	385.75424	411.68262	409.72318	410.69014	413.20858	402.98674	395.25104	392.82309	125.43541	125.39060	125.12733
16.7805	16.7872	1409	129	468.61750	219.10893	175.33890	162.45540	211.27606	163.39065	210.66766	433.62145	1224.0710	487.32722	382.99896	425.42175	391.16434	378.11572	388.21191	414.29435	412.32212	413.29528	415.85610	405.53557	397.76394	395.27791	126.22980	126.18627	125.91892
16.7872	16.7939	1095	114	471.50015	220.45853	176.41853	163.45486	212.57647	164.39626	211.96440	436.29187	1231.5890	490.32997	385.35257	428.07580	393.56689	380.43890	390.61285	416.83941	414.85563	415.83454	418.43839	408.01924	400.21255	397.66957	127.00399	126.96134	126.68979
16.7939	16.8006	766	107	474.04513	221.65058	177.37182	164.33811	213.72474	165.28488	213.10997	438.64975	1238.2289	492.98208	387.43012	430.42652	395.68849	382.49024	392.72859	419.08687	417.08674	418.07638	420.72259	410.21071	402.37547	399.78059	127.68822	127.64572	127.37085
16.8006	16.8073	610	104	476.25592	222.68672	178.20008	165.10634	214.72244	166.05771	214.10595	440.69834	1244.0000	495.28718	389.23446	432.47707	397.53203	384.27254	394.56205	421.03981	419.01855	420.02387	422.71180	412.11298	404.25563	401.61386	128.28343	128.24037	127.96302
16.8073	16.8140	395	99	478.10555	223.55409	178.89333	165.74874	215.55738	166.70379	214.93871	442.41313	1248.8262	497.21616	390.74482	434.19854	399.07452	385.76349	396.09637	422.67367	420.62771	421.65328	424.38069	413.70356	405.82938	403.15246	128.78115	128.73826	128.45687
16.8140	16.8207	322	101	479.74932	224.32527	179.50963	166.31941	216.29956	167.27764	215.67844	443.93768	1253.1139	498.93077	392.08762	435.73247	400.44543	387.08838	397.46020	424.12568	422.05297	423.10141	425.86701	415.11648	407.22849	404.52310	129.22331	129.18101	128.89469
16.8207	16.8274	282	115	481.07870	224.94812	180.00789	166.78107	216.89996	167.74280	216.27743	445.16912	1256.5787	500.31731	393.17167	436.97781	401.55270	388.15903	398.56379	425.29846	423.20692	424.27081	427.07180	416.25750	408.35959	405.63268	129.58088	129.53843	129.24963
16.8274	16.8341	218	84	482.31326	225.52624	180.47054	167.20986	217.45762	168.17519	216.83398	446.31219	1259.7954	501.60492	394.17771	438.13611	402.58047	389.15301	399.58891	426.38705	424.27906	425.35617	428.19169	417.31652	409.40988	406.66354	129.91295	129.87011	129.57958
16.8341	16.8408	219	80	483.04546	225.87263	180.74677	167.46545	217.78996	168.43228	217.16606	446.99536	1261.7143	502.37468	394.77728	438.83801	403.19269	389.74535	400.19529	427.03587	424.92020	426.00235	428.86733	417.94577	410.03873	407.27476	130.11080	130.06764	129.77409
16.8408	16.8475	186	99	483.70224	226.18403	180.99493	167.69500	218.08844	168.66310	217.46434	447.60917	1263.4374	503.06639	395.31560	439.47145	403.74233	390.27716	400.73905	427.61841	425.49619	426.58238	429.47613	418.51031	410.60400	407.82279	130.28844	130.24497	129.94832
16.8475	16.8542	158	96	483.80796	226.23599	181.03663	167.73351	218.13880	168.70295	217.51384	447.71036	1263.7129	503.18273	395.40264	439.60579	403.83113	390.36270	400.82924	427.71195	425.58840	426.67531	429.59371	418.59893	410.69925	407.90588	130.31698	130.27382	129.97510
16.8542	16.8609	168	98	483.72629	226.20047	181.00819	167.70713	218.10451	168.67723	217.47924	447.63845	1263.5006	503.10453	395.33687	439.56952	403.76373	390.29742	400.76366	427.64025	425.51821	426.60348	429.54531	418.52556	410.63584	407.83116	130.29523	130.25228	129.95149
16.8609	16.8676	141	92	482.75188	225.74816	180.64555	167.37155	217.66691	168.33914	217.04394	446.74189	1260.9640	502.09947	394.54301	438.72032	402.95217	389.51357	399.95593	426.78131	424.67425	425.74666	428.70608	417.68044	409.81659	407.00460	130.03381	129.99066	129.68780
16.8676	16.8743	132	94	481.45632	225.14496	180.16244	166.92414	217.08453	167.88879	216.46367	445.54707	1257.5839	500.75867	393.48732	437.57852	401.87174	388.46940	398.88206	425.63708	423.54835	424.60553	427.58024	416.55699	408.72354	405.90613	129.68536	129.64222	129.33762
16.8743	16.8810	87	94	479.43649	224.20149	179.40765	166.22451	216.17567	167.18527	215.55647	443.67958	1252.3014	498.66069	391.84111	435.77687	400.18498	386.83815	397.20801	423.84942	421.78663	422.82320	425.80804	414.80582	407.01302	404.19447	129.14062	129.09797	128.79236
16.8810	16.8877	106	75	477.04631	223.08482	178.51395	165.39625	215.09877	166.35260	214.48255	441.46876	1246.0514	496.17769	389.89673	433.63670	398.18870	384.90789	395.22495	421.73434	419.70050	420.71400	423.70663	412.73446	404.98745	402.17007	128.49631	128.45389	128.14758
16.8877	16.8944	111	94	474.18730	221.74890	177.44442	164.40515	213.80914	165.35644	213.19756	438.82332	1238.5764	493.20728	387.57490	431.06804	395.80061	382.59912	392.85071	419.20475	417.20370	418.19101	421.18849	410.25777	402.56308	399.74977	127.72594	127.68345	127.37680
16.8944	16.9011	108	94	470.89907	220.21134	176.21355	163.26467	212.32585	164.20964	211.71863	435.77857	1229.9764	489.78733	384.89906	428.10857	393.05241	379.94228	390.12120	416.29369	414.32650	415.28755	418.28680	407.40546	399.77295	396.96624	126.83904	126.79689	126.48999
16.9011	16.9078	83	104	467.29841	218.52701	174.86523	162.01545	210.70159	162.95318	210.09852	432.44315	1220.5573	486.04014	381.96549	424.86459	390.04208	377.03207	387.13307	413.10494	411.17235	412.10711	415.10587	404.27969	396.71658	393.91831	125.86730	125.82580	125.51871
16.9078	16.9145	98	97	463.06954	216.54842	173.28143	160.54787	208.79292	161.47755	208.19593	428.52697	1209.4953	481.63977	378.51659	421.04777	386.50808	373.61558	383.62184	409.36151	407.46574	408.37315	411.36715	400.61117	393.12658	390.34233	124.72664	124.68569	124.37926
16.9145	16.9212	98	76	458.58512	214.45013	171.60184	158.99147	206.76857	159.91276	206.17845	424.37454	1197.7650	476.97370	374.85805	416.99792	382.76106	369.99314	379.89781	405.39243	403.53439	404.41404	407.40154	396.72187	389.31950	386.55155	123.51729	123.47682	123.17140
16.9212	16.9279	102	83	453.67457	212.15312	169.76364	157.28867	204.55212	158.20016	203.96946	419.82795	1184.9268	471.86461	370.84899	412.55967	378.65847	366.02689	375.82389	401.04660	399.22780	400.07907	403.05637	392.46486	385.15166	382.40055	122.19346	122.15325	121.84864
16.9279	16.9346	118	83	448.68272	209.81820	167.89518	155.55792	202.29902	156.45935	201.72393	415.20614	1171.8772	466.67099	366.77307	408.04733	374.48803	361.99504	371.68319	396.62888	394.84962	395.67239	398.63880	388.13768	380.91499	378.18083	120.84780	120.80779	120.50397
16.9346	16.9413	121	87	443.45681	207.37308	165.93804	153.74356	199.94203	154.63524	199.37275	410.36646	1158.2130	461.23314	362.50412	403.31962	370.12153	357.77408	367.34530	392.00377	390.26408	391.05939	394.01248	383.60521	376.47852	373.76441	119.43857	119.39913	119.09730
16.9413	16.9480	136	89	438.28937	204.95530	164.00283	151.94966	197.61084	152.83168	197.04781	405.58105	1144.7018	455.85609	358.28281	398.64504	365.80397	353.60035	363.05598	387.43044	385.72996	386.49802	389.43799	379.12371	372.09169	369.39743	118.04517	118.00625	117.70632
16.9480	16.9547	144	89	433.61585	202.76853	162.25307	150.32885	195.49777	151.20184	194.94474	401.25435	1132.4839	450.99275	354.46421	394.41973	361.89990	349.82564	359.17731	383.29468	381.63046	382.37276	385.30153	375.07305	368.12430	365.44793	116.78544	116.74661	116.44766
16.9547	16.9614	153	108	429.00039	200.60908	160.52479	148.72786	193.41182	149.59182	192.86798	396.98131	1120.4190	446.18996	350.69307	390.24704	358.04421	346.09789	355.34693	379.21029	377.58189	378.29878	381.21663	371.07195	364.20628	361.54723	115.54117	115.50264	115.20471
16.9614	16.9681	157	81	424.55309	198.52875	158.85873	147.18427	191.40453	148.03912	190.86748	392.86363	1108.7972	441.56248	347.05932	386.22676	354.32866	342.50615	351.65644	375.27465	373.68083	374.37331	377.28107	367.21420	360.43120	357.78784	114.34165	114.30405	114.00728
16.9681	16.9748	177	110	420.27811	196.52861	157.25732	145.69970	189.47451	146.54713	188.94415	388.90548	1097.6284	437.11377	343.56642	382.36309	350.75705	339.05335	348.10754	371.49147	369.93133	370.59975	373.49834	363.50576	356.80244	354.17438	113.18882	113.15182	112.85603
16.9748	16.9815	240	106	416.28805	194.66108	155.76283	144.31273	187.67227	145.15547	187.14846	385.21109	1087.2086	432.96069	340.30638	378.75834	347.42347	335.83029	344.79283	367.96036	366.43239	367.07738	369.96827	360.04419	353.41560	350.80221	112.11317	112.07626	111.78115
16.9815	16.9882	305	82	412.65756	192.96186	154.40289	143.05123	186.03369	143.88849	185.51397	381.84905	1077.7294	429.18213	337.33980	375.47942	344.38969	332.89731	341.77747	364.74676	363.24938	363.87174	366.75732	356.89421	350.33378	347.73254	111.13422	111.09751	110.80280
16.9882	16.9949	439	103	409.36476	191.42071	153.16931	141.90756	184.54881	142.73858	184.03087	378.79915	1069.1335	425.75531	334.64882	372.50651	341.63748	330.23676	339.04326	361.83136	360.36308	360.96355	363.84605	354.03684	347.53843	344.94696	110.24608	110.20970	109.91511
16.9949	17.0016	597	89	406.20551	189.94182	151.98380	140.81159	183.12466	141.63536	182.60761	375.87511	1060.9031	422.46625	332.06691	369.65472	338.99723	327.68443	336.41770	359.03496	357.59454	358.17403	361.05386	351.29443	344.85688	342.27472	109.39397	109.35793	109.06367
17.0016	17.0083	960	102	403.11566	188.49528	150.82325	139.74043	181.73207	140.55639	181.21543	373.01652	1052.8630	419.24876	329.54168	366.86587	336.41517	325.18834	333.84857	356.30042	354.88721	355.44619	358.32356	348.61174	342.23448	339.66139	108.56058	108.52487	108.23108
17.0083	17.0150	1298	119	400.48608	187.26363	149.83675	138.82890	180.54640	139.63696	180.02983	370.58364	1046.0275	416.51039	327.39243	364.49586	334.21731	323.06280	331.66270	353.97181	352.58456	353.12371	356.00150	346.32742	340.00237	337.43559	107.85136	107.81580	107.52188
17.0150	17.0217	1863	124	397.98188	186.09052	148.89767	137.96085	179.41709	138.76099	178.90050	368.26671	1039.5200	413.90252	325.34558	362.23993	332.12410	321.03819	329.58123	351.75377	350.39214	350.91165	353.79062	344.15161	337.87657	335.31536	107.17596	107.14049	106.84628
17.0217	17.0284	2484	134	396.30116	185.30270	148.26783	137.37856	178.65975	138.17240	178.14323	366.71120	1035.1433	412.15087	323.97204	360.73362	330.71843	319.67904	328.17961	350.26414	348.92443	349.42580	352.31158	342.68890	336.45024	333.88976	106.72198	106.68696	106.39194
17.0284	17.0351	2975	153	394.72552	184.56398	147.67749	136.83270	177.94982	137.62055	177.43345	365.25290	1031.0395	410.50840	322.68438	359.32295	329.40045	318.40474	326.86480	348.86748	347.54923	348.03265	350.92593	341.31703	335.11317	332.55277	106.29629	106.26172	105.96582
17.0351	17.0418	3124	129	393.70906	184.08584	147.29792	136.48032	177.49141	137.26495	176.97649	364.31275	1028.3995	409.44605	321.85329	358.42169	328.54861	317.58119	326.01276	347.96596	346.66690	347.13329	350.03769	340.42661	334.25114	331.68706	106.02169	105.98676	105.68990
17.0418	17.0485	3276	158	392.79602	183.65605	146.95682	136.16385	177.07967	136.94559	176.56599	363.46781	1026.0266	408.49096	321.10655	357.61413	327.78315	316.84096	325.24673	347.15556	345.87532	346.32490	349.24111	339.62564	333.47674	330.90813	105.77483	105.73964	105.44167
17.0485	17.0552	3040	152	392.33224	183.43631	146.78281	136.00342	176.87062	136.78366	176.35734	363.03649	1024.8144	408.00181	320.72623	357.21353	327.39289	316.46271	324.85440	346.74098	345.47792	345.91167	348.84267	339.21329	333.08301	330.50619	105.64846	105.61349	105.31373
17.0552	17.0619	2958	132	391.87711	183.22130	146.61226	135.84581	176.66557	136.62484	176.15276	362.61371	1023.6295	407.52199	320.35342	356.82128	327.00984	316.09162	324.46702	346.33436	345.08867	345.50635	348.45230	338.80899	332.69687	330.11232	105.52458	105.48975	105.18827
17.0619	17.0686	2884	124	391.44043	183.01635	146.44909	135.69418	176.46907	136.47268	175.95688	362.20916	1022.5030	407.06206	319.99663	356.44681	326.64217	315.73583	324.09029	345.94472	344.71678	345.11792	348.07916	338.42186	332.32692	329.73566	105.40602	105.37116	105.06807
17.0686	17.0753	2998	153	391.16741	182.88818	146.34712	135.59956	176.34599	136.37758	175.83427	361.95542	1021.7993	406.77306	319.77293	356.21992	326.41081	315.51202	323.85189	345.70040	344.48839	344.87360	347.85142	338.17423	332.09580	329.49631	105.33146	105.29653	104.99173
17.0753	17.0820	3102	136	391.08895	182.85130	146.31792	135.57270	176.31019	136.35034	175.79879	361.88098	1021.5980	406.68727	319.70747	356.16848	326.34151	315.44514	323.77795	345.62884	344.43061	344.80060	347.79656	338.09244	332.02974	329.42020	105.30920	105.27415	104.96753
17.0820	17.0887	3002	116	391.00250	182.81130	146.28548	135.54282	176.27161	136.32047	175.76022	361.79895	1021.3757	406.59615	319.63636	356.11169	326.26622	315.37171	323.69227	345.55348	344.36707	344.72093	347.73527	338.00589	331.95693	329.33753	105.28473	105.24980	104.94141
17.0887	17.0954	2676	138	390.91048	182.76914	146.25080	135.51084	176.23110	136.28878	175.71950	361.71163	1021.1388	406.50129	319.56131	356.05117	326.18675	315.29373	323.59843	345.47546	344.29952	344.63659	347.66951	337.91603	331.87944	329.25029	105.25871	105.22406	104.91396
17.0954	17.1021	2141	107	390.74342	182.69082	146.18831	135.45290	176.15548	136.23022	175.64412	361.55477	1020.7035	406.32727	319.42397	355.92373	326.04387	315.15494	323.44115	345.33285	344.16804	344.48538	347.54008	337.75870	331.73792	329.09947	105.21263	105.17778	104.86580
17.1021	17.1088	1623	113	390.54804	182.59886	146.11532	135.38515	176.06661	136.16153	175.55566	361.37166	1020.1933	406.12339	319.26311	355.77103	325.87708	314.99320	323.25993	345.16586	344.01244	344.30894	347.38663	337.57592	331.57225	328.92468	105.15898	105.12375	104.80981
17.1088	17.1155	1182	109	390.31713	182.49140	146.02908	135.30514	175.96300	136.08166	175.45209	361.15725	1019.5918	405.88390	319.07384	355.58517	325.68145	314.80354	323.05079	344.96987	343.82537	344.10179	347.20028	337.36392	331.37688	328.72045	105.09551	105.06059	104.74512
17.1155	17.1222	794	92	390.08027	182.38134	145.94062	135.22308	175.85693	135.99992	175.34600	360.93760	1018.9750	405.63845	318.87981	355.39378	325.48099	314.60921	322.83695	344.76902	343.63306	343.88950	347.00846	337.14702	331.17654	328.51130	105.03040	104.99590	104.67897
17.1222	17.1289	632	94	389.63478	182.17277	145.77391	135.06876	175.65548	135.84397	175.14528	360.52589	1017.8118	405.17499	318.51362	355.00898	325.10442	314.24558	322.45780	344.38247	343.25264	343.49279	346.62723	336.74831	330.79880	328.12605	104.90942	104.87465	104.55539
17.1289	17.1356	446	99	389.20931	181.97364	145.61468	134.92138	175.46320	135.69516	174.95366	360.13266	1016.7007	404.73247	318.16389	354.64258	324.74357	313.89820	322.09594	344.01342	342.88998	343.11376	346.26388	336.36659	330.43805	327.75773	104.79381	104.75881	104.43741
17.1356	17.1423	350	99	388.92934	181.84320	145.50983	134.82445	175.33756	135.59825	174.82817	359.87368	1015.9687	404.44214	317.93388	354.41009	324.49753	313.66904	321.85915	343.77164	342.65654	342.86337	346.03056	336.10862	330.20083	327.51254	104.71719	104.68222	104.36008
17.1423	17.1490	307	86	388.64934	181.71271	145.40501	134.72751	175.21162	135.50105	174.70258	359.61490	1015.2365	404.15166	317.70377	354.17673	324.25037	313.44103	321.62306	343.52938	342.42272	342.61299	345.79721	335.85053	329.96364	327.26718	104.64060	104.60568	104.28219
17.1490	17.1557	222	107	388.36888	181.58191	145.30011	134.63043	175.08468	135.40290	174.57655	359.35631	1014.5029	403.86033	317.47308	353.94061	323.99970	313.21596	321.38861	343.28545	342.18749	342.36232	345.56345	335.59175	329.72621	327.02103	104.56397	104.52918	104.20265
17.1557	17.1624	196	86	387.95892	181.39031	145.14674	134.48826	174.89978	135.25988	174.39223	358.97754	1013.4308	403.43417	317.13614	353.58760	323.64075	312.88901	321.04659	342.92620	341.83826	341.99740	345.21449	335.22079	329.37884	326.66601	104.45253	104.41778	104.08929
17.1624	17.1691	165	91	387.35191	181.10617	144.91959	134.27750	174.62670	135.04858	174.11921	358.41590	1011.8438	402.80282	316.63751	353.05674	323.11701	312.40703	320.54090	342.39148	341.31557	341.45863	344.69026	334.67910	328.86419	326.14534	104.28811	104.25324	103.92447
17.1691	17.1758	163	81	386.77765	180.83773	144.70467	134.07840	174.36773	134.84828	173.86099	357.88496	1010.3422	402.20584	316.16600	352.55446	322.62225	311.95287	320.06247	341.88542	340.82233	340.94876	344.19470	334.16275	328.37728	325.65188	104.13229	104.09773	103.76727
17.1758	17.1825	144	88	386.23293	180.58342	144.50078	133.88980	174.12150	134.65791	173.61612	357.38170	1008.9176	401.63986	315.71893	352.07796	322.15361	311.52376	319.60863	341.40521	340.35563	340.46495	343.72501	333.66934	327.91539	325.18298	103.98420	103.95037	103.61697
17.1825	17.1892	129	85	385.50250	180.24164	144.22749	133.63661	173.79231	134.40329	173.28779	356.70595	1007.0078	400.88010	315.11957	351.43253	321.53266	310.94147	319.00137	340.76096	339.72346	339.81716	343.09025	333.01727	327.29589	324.55796	103.78637	103.75340	103.41797
17.1892	17.1959	133	94	384.67818	179.85565	143.91910	133.35076	173.42119	134.11617	172.91726	355.94300	1004.8528	400.02236	314.44321	350.70169	320.83469	310.28174	318.31653	340.03378	339.00765	339.08645	342.37206	332.28495	326.59669	323.85398	103.56337	103.53137	103.19433
17.1959	17.2026	116	94	384.20188	179.63337	143.74104	133.18579	173.20623	133.95017	172.70307	355.50205	1003.6066	399.52743	314.05145	350.28910	320.42784	309.90263	317.91856	339.61370	338.60076	338.66339	341.96401	331.85000	326.19296	323.44310	103.43416	103.40502	103.06324
17.2026	17.2093	110	69	383.81245	179.45195	143.59551	133.05099	173.03024	133.81440	172.52790	355.14147	1002.5874	399.12305	313.73073	349.95596	320.09365	309.59357	317.59218	339.27026	338.27098	338.31712	341.63338	331.48926	325.86297	323.10535	103.32835	103.30255	102.95524
17.2093	17.2160	117	108	383.42911	179.27249	143.45194	132.91812	172.85782	133.68079	172.35566	354.78650	1001.5809	398.72399	313.41371	349.62639	319.76324	309.28649	317.27338	338.93051	337.94484	337.97500	341.30883	331.13474	325.53782	322.77276	103.22361	103.20126	102.84928
17.2160	17.2227	95	89	383.04564	179.09298	143.30833	132.78518	172.68535	133.54715	172.18337	354.43145	1000.5743	398.32480	313.09645	349.29670	319.43281	308.97916	316.95440	338.59070	337.61856	337.63279	340.98468	330.78095	325.21263	322.44010	103.11887	103.09996	102.74334
17.2227	17.2294	89	75	382.65292	178.91002	143.16156	132.64880	172.50791	133.41037	172.00696	354.06818	999.54884	397.91694	312.77080	348.96046	319.09695	308.66499	316.62438	338.24499	337.28535	337.28374	340.65862	330.42956	324.88066	322.09990	103.01257	102.99684	102.63518
17.2294	17.2361	81	89	382.37607	178.78103	143.05808	132.55272	172.38288	133.31393	171.88258	353.81196	998.82446	397.62941	312.53989	348.72929	318.85773	308.44439	316.39092	338.00149	337.05395	337.03666	340.43626	330.17892	324.64691	321.85726	102.93725	102.92469	102.55791
17.2361	17.2428	62	86	382.55409	178.86389	143.12454	132.61483	172.46357	133.37590	171.96245	353.97599	999.28211	397.81422	312.68087	348.91063	318.99786	308.59113	316.53644	338.15920	337.22220	337.18986	340.62098	330.32374	324.79872	321.99759	102.98354	102.97414	102.60191
17.2428	17.2495	61	98	382.80889	178.98289	143.21964	132.70324	172.57864	133.46469	172.07683	354.21105	999.94191	398.07907	312.88543	349.16261	319.20204	308.79917	316.74453	338.38445	337.45860	337.41075	340.87685	330.53652	325.02129	322.20223	103.05072	103.04399	102.66712
17.2495	17.2562	64	98	383.21425	179.17275	143.37091	132.84318	172.76112	133.60611	172.25891	354.58541	1000.9982	398.50085	313.21471	349.55311	319.53184	309.12745	317.07530	338.74216	337.82862	337.76440	341.27220	330.88259	325.38267	322.53303	103.15890	103.15387	102.77393
17.2562	17.2629	79	81	383.64944	179.37624	143.53375	132.99406	172.95711	133.75786	172.45449	354.98772	1002.1303	398.95347	313.56897	349.97081	319.88685	309.47941	317.43176	339.12662	338.22463	338.14456	341.69645	331.25469	325.77930	322.88957	103.27495	103.27192	102.88821
17.2629	17.2696	54	93	384.11839	179.59513	143.70967	133.15732	173.16837	133.92129	172.66535	355.42164	1003.3482	399.44095	313.95148	350.41927	320.27038	309.85816	317.81728	339.54134	338.65005	338.55469	342.15338	331.65622	326.21574	323.27520	103.39990	103.39922	103.01095
17.2696	17.2763	47	89	384.79314	179.91067	143.96201	133.39105	173.47274	134.15635	172.96860	356.04576	1005.1004	400.14255	314.50277	351.05554	320.82560	310.40255	318.37231	340.13709	339.25656	339.14566	342.79441	332.23504	326.85311	323.83249	103.58031	103.58143	103.18971
17.2763	17.2830	58	90	385.60249	180.28941	144.26433	133.67088	173.83801	134.43826	173.33227	356.79428	1007.2020	400.98421	315.16446	351.81466	321.49311	311.05527	319.03822	340.85125	339.98152	339.85491	343.55588	332.92981	327.62188	324.50204	103.79700	103.79956	103.40510
17.2830	17.2897	63	98	386.41454	180.66885	144.56840	133.95269	174.20378	134.72159	173.69728	357.54500	1009.3203	401.82852	315.82836	352.57673	322.16376	311.71074	319.70669	341.56832	340.71010	340.56695	344.31831	333.62712	328.43429	325.17528	104.01468	104.01905	103.62072
17.2897	17.2964	66	88	387.22769	181.04861	144.87315	134.23525	174.56981	135.00549	174.06285	358.29663	1011.4449	402.67393	316.49317	353.33998	322.83563	312.36730	320.37618	342.28655	341.44008	341.28011	345.08124	334.32547	329.26217	325.84996	104.23275	104.23906	103.83647
17.2964	17.3031	78	96	388.03344	181.42582	145.17392	134.51413	174.93320	135.28606	174.42489	359.04054	1013.5376	403.51141	317.15162	354.09527	323.49896	313.01771	321.03958	342.99752	342.16189	341.98626	345.83134	335.01734	330.14697	326.51697	104.44975	104.45628	104.05149
17.3031	17.3098	83	90	388.83546	181.80140	145.47313	134.79157	175.29502	135.56524	174.78522	359.78090	1015.6188	404.34498	317.80699	354.84698	324.15886	313.66508	321.69989	343.70510	342.88018	342.68906	346.57719	335.70598	331.03701	327.18066	104.66589	104.67238	104.26569
17.3098	17.3165	71	93	389.39116	182.06065	145.68163	134.98469	175.54515	135.75911	175.03486	360.29446	1017.0622	404.92310	318.26152	355.37515	324.61612	314.11327	322.15580	344.19526	343.38270	343.17548	347.10246	336.18172	331.65115	327.63763	104.81648	104.82212	104.41300
17.3165	17.3232	62	96	389.96453	182.32828	145.89658	135.18386	175.80332	135.95912	175.29248	360.82424	1018.5505	405.51956	318.73044	355.91940	325.08798	314.57561	322.62646	344.70104	343.90072	343.67742	347.64349	336.67274	332.28303	328.10949	104.97174	104.97656	104.56498
17.3232	17.3299	76	95	390.64152	182.64499	146.14937	135.41840	176.10869	136.19514	175.59684	361.44902	1020.3017	406.22352	319.28368	356.55777	325.64547	315.12085	323.18357	345.29843	344.50946	344.27046	348.27676	337.25338	333.01869	328.66872	105.15435	105.15862	104.74440
17.3299	17.3366	70	88	391.28748	182.94713	146.39079	135.64221	176.39998	136.42031	175.88720	362.04501	1021.9710	406.89511	319.81167	357.16772	326.17709	315.64112	323.71462	345.86818	345.09104	344.83616	348.88210	337.80731	333.71590	329.20183	105.32904	105.33243	104.91535
17.3366	17.3433	90	86	391.85271	183.21134	146.60260	135.83812	176.65468	136.61730	176.14114	362.56616	1023.4272	407.48252	320.27396	357.70382	326.64146	316.09644	324.17792	346.36607	345.60198	345.33076	349.41478	338.29177	334.31310	329.66700	105.48312	105.48480	105.06429
17.3433	17.3500	95	96	392.24010	183.39237	146.74759	135.97243	176.82927	136.75237	176.31522	362.92259	1024.4259	407.88521	320.59077	358.07799	326.95764	316.40826	324.49452	346.70666	345.95567	345.66848	349.78776	338.62238	334.75141	329.98288	105.58868	105.58917	105.16589
17.3500	17.3567	113	104	392.37366	183.45470	146.79719	136.01882	176.88952	136.79905	176.37533	363.04391	1024.7717	408.02428	320.69993	358.22110	327.06229	316.51526	324.60176	346.82272	346.08497	345.78232	349.93287	338.73340	334.96308	330.08568	105.62500	105.62504	105.19992
17.3567	17.3634	126	95	392.32237	183.43051	146.77779	136.00102	176.86637	136.78102	176.35210	362.99470	1024.6332	407.97082	320.65793	358.19528	327.01300	316.47307	324.55603	346.77547	346.05159	345.73351	349.91289	338.68528	335.01712	330.03360	105.61250	105.61100	105.18351
17.3634	17.3701	112	92	392.11744	183.33443	146.70106	135.92987	176.77389	136.70921	176.25962	362.80378	1024.0924	407.75737	320.49031	358.02908	326.83576	316.30690	324.38316	346.59249	345.88303	345.54952	349.75572	338.50491	334.94019	329.85279	105.55941	105.55548	105.12517
17.3701	17.3768	104	87	392.06769	183.31115	146.68250	135.91244	176.75118	136.69189	176.23715	362.75683	1023.9587	407.70547	320.44963	358.00482	326.78865	316.26576	324.33829	346.54651	345.85096	345.50189	349.73732	338.45805	334.98231	329.80312	105.54725	105.54227	105.10906
17.3768	17.3835	115	85	392.09099	183.32215	146.69132	135.92029	176.76132	136.70022	176.24763	362.77763	1024.0165	407.72962	320.46871	358.04735	326.80279	316.28347	324.35368	346.56501	345.88314	345.51845	349.78421	338.47406	335.08039	329.81517	105.55436	105.54897	105.11283
17.3835	17.3902	115	96	392.18713	183.36709	146.72715	135.95369	176.80467	136.73353	176.29081	362.86572	1024.2676	407.82930	320.54684	358.15474	326.87747	316.35934	324.42997	346.64725	345.97975	345.59961	349.89495	338.55291	335.23800	329.89061	105.58091	105.57443	105.13590
17.3902	17.3969	102	87	392.29995	183.41980	146.76914	135.99295	176.85562	136.77256	176.34147	362.96920	1024.5628	407.94626	320.63849	358.27699	326.96601	316.44852	324.52020	346.74408	346.09111	345.69555	350.02031	338.64615	335.40927	329.98054	105.61191	105.60417	105.16339
17.3969	17.4036	95	81	392.33911	183.43820	146.78403	136.00649	176.87340	136.78641	176.35909	363.00465	1024.6663	407.98715	320.67106	358.33619	326.99334	316.47944	324.54923	346.77566	346.14346	345.72656	350.08296	338.67634	335.52693	330.00980	105.62343	105.61400	105.17060
17.4036	17.4103	102	81	392.37337	183.45427	146.79705	136.01835	176.88893	136.79853	176.37449	363.03562	1024.7569	408.02290	320.69956	358.39094	327.01662	316.50636	324.57412	346.80276	346.19189	345.75302	350.14128	338.70224	335.63990	330.03480	105.63357	105.62257	105.17657
17.4103	17.4170	85	95	392.39718	183.46513	146.80563	136.02687	176.89915	136.80650	176.38495	363.05738	1024.8181	408.04686	320.71811	358.43392	327.03149	316.52379	324.58970	346.81913	346.23203	345.76778	350.18877	338.71817	335.73262	330.04877	105.63998	105.62896	105.18099
17.4170	17.4237	90	103	392.41981	183.47548	146.81374	136.03478	176.90909	136.81415	176.39490	363.07792	1024.8763	408.06982	320.73595	358.47600	327.04511	316.53998	324.60445	346.83439	346.27149	345.77973	350.23479	338.73324	335.82440	330.06168	105.64633	105.63491	105.18464
17.4237	17.4304	83	77	392.43829	183.48398	146.82015	136.04053	176.91802	136.82067	176.40306	363.09408	1024.9237	408.08919	320.75126	358.51488	327.05424	316.55177	324.61620	346.84567	346.30860	345.78159	350.27554	338.74524	335.91292	330.07082	105.65247	105.63932	105.18547
17.4304	17.4371	72	98	392.45712	183.49237	146.82684	136.04660	176.92644	136.82707	176.41115	363.11035	1024.9705	408.10822	320.76621	358.55338	327.06410	316.56412	324.62779	346.85678	346.34659	345.78209	350.31644	338.75720	335.99633	330.07928	105.65819	105.64388	105.18691
17.4371	17.4438	78	83	392.47661	183.50056	146.83407	136.05326	176.93391	136.83329	176.41912	363.12682	1025.0161	408.12665	320.78050	358.59124	327.07534	316.57751	324.63909	346.86759	346.38623	345.78005	350.35766	338.76910	336.07041	330.08648	105.66313	105.64874	105.18950
17.4438	17.4505	88	81	392.48894	183.50479	146.83764	136.05656	176.93818	136.83654	176.42341	363.13527	1025.0404	408.13620	320.78811	358.62150	327.07912	316.58317	324.64295	346.87087	346.41817	345.76998	350.39024	338.77307	336.14371	330.08651	105.66569	105.65093	105.18897
17.4505	17.4572	99	85	392.49369	183.50480	146.83734	136.05630	176.93907	136.83667	176.42380	363.13522	1025.0423	408.13634	320.78866	358.64367	327.07501	316.58063	324.63893	346.86618	346.44192	345.75140	350.41364	338.76865	336.21610	330.07895	105.66573	105.65031	105.18513
17.4572	17.4639	84	76	392.49462	183.50179	146.83501	136.05414	176.93619	136.83431	176.42073	363.12907	1025.0279	408.12973	320.78353	358.65891	327.06628	316.57354	324.63050	346.85793	346.45824	345.73096	350.43241	338.75945	336.28276	330.06596	105.66415	105.64825	105.18009
17.4639	17.4706	93	94	392.49322	183.49693	146.83143	136.05081	176.93101	136.83042	176.41552	363.11918	1025.0036	408.11898	320.77491	358.66990	327.05473	316.56366	324.61936	346.84751	346.47002	345.70937	350.44833	338.74732	336.34594	330.04963	105.66157	105.64530	105.17431
17.4706	17.4773	108	94	392.48861	183.49058	146.82638	136.04608	176.92519	136.82589	176.40961	363.10630	1024.9666	408.10501	320.76400	358.67923	327.04161	316.54965	324.60391	346.83470	346.47875	345.68540	350.46069	338.73146	336.39974	330.02951	105.65754	105.64124	105.16760
17.4773	17.4840	112	80	392.48297	183.48373	146.82084	136.04088	176.91916	136.82117	176.40347	363.09246	1024.9254	408.08998	320.75234	358.68804	327.02797	316.53429	324.58706	346.82112	346.48648	345.66064	350.47190	338.71436	336.45053	330.00815	105.65304	105.63681	105.16060
17.4840	17.4907	98	91	392.46698	183.47280	146.81164	136.03238	176.90789	136.81262	176.39264	363.07055	1024.8637	408.06505	320.73235	358.68745	327.00824	316.51175	324.56387	346.79992	346.48455	345.62813	350.47479	338.68983	336.49445	329.98052	105.64705	105.62972	105.14966
17.4907	17.4974	95	86	392.44895	183.46103	146.80175	136.02325	176.89569	136.80337	176.38091	363.04700	1024.7975	408.03818	320.71078	358.68507	326.98713	316.48771	324.53931	346.77716	346.48076	345.59407	350.47603	338.66377	336.53673	329.95149	105.64068	105.62213	105.13810
17.4974	17.5041	94	84	392.39912	183.43522	146.78157	136.00489	176.87139	136.78461	176.35645	362.99586	1024.6524	407.98153	320.66627	358.65603	326.93954	316.43739	324.49000	346.72871	346.44930	345.53552	350.45107	338.61265	336.54636	329.89597	105.62593	105.60683	105.12101
17.5041	17.5108	93	75	392.35072	183.41009	146.76178	135.98681	176.84757	136.76618	176.33250	362.94591	1024.5113	407.92613	320.62270	358.62830	326.89226	316.38815	324.44179	346.68139	346.41934	345.47830	350.42710	338.56255	336.55812	329.84162	105.61150	105.59176	105.10396
17.5108	17.5175	67	81	392.30984	183.38855	146.74398	135.97015	176.82624	136.74943	176.31125	362.90213	1024.3911	407.87724	320.58402	358.60740	326.84652	316.34450	324.39939	346.63995	346.39724	345.42796	350.40829	338.51775	336.58126	329.79333	105.59879	105.57787	105.08706
17.5175	17.5242	86	100	392.27029	183.36749	146.72700	135.95432	176.80573	136.73354	176.29083	362.86016	1024.2748	407.83007	320.54690	358.58767	326.80204	316.30349	324.35844	346.60005	346.37620	345.37911	350.39117	338.47455	336.60484	329.74614	105.58647	105.56440	105.07070
17.5242	17.5309	78	93	392.23402	183.34768	146.71203	135.94053	176.78726	136.71974	176.27245	362.82265	1024.1684	407.78719	320.51363	358.57081	326.76069	316.26898	324.32111	346.56394	346.35774	345.33394	350.37815	338.43535	336.62942	329.70172	105.57514	105.55198	105.05571
17.5309	17.5376	84	81	392.19576	183.32753	146.69605	135.92584	176.76812	136.70497	176.25321	362.78325	1024.0556	407.74273	320.47863	358.55284	326.71778	316.23366	324.28179	346.52591	346.33745	345.28745	350.36348	338.39458	336.64957	329.65616	105.56316	105.53912	105.04039
17.5376	17.5443	77	76	392.15480	183.30694	146.67868	135.90993	176.74808	136.68887	176.23280	362.74129	1023.9340	407.69612	320.44126	358.53337	326.67275	316.19722	324.23976	346.48528	346.31466	345.23917	350.34657	338.35169	336.66376	329.60905	105.55030	105.52567	105.02462
17.5443	17.5510	77	91	392.09197	183.27555	146.65366	135.88679	176.71844	136.66546	176.20284	362.67910	1023.7576	407.62628	320.38635	358.49345	326.60954	316.14347	324.18088	346.42609	346.27178	345.17163	350.31028	338.28985	336.66233	329.54325	105.53181	105.50665	105.00213
17.5510	17.5577	85	90	392.01196	183.23569	146.62262	135.85797	176.68127	136.63630	176.16538	362.60101	1023.5380	407.53819	320.31765	358.43748	326.53204	316.07612	324.10876	346.35232	346.21313	345.08896	350.25877	338.21313	336.64867	329.46277	105.50889	105.48326	104.97436
17.5577	17.5644	96	95	391.93440	183.19783	146.59211	135.83064	176.64623	136.60801	176.12871	362.52564	1023.3238	407.45349	320.25112	358.38420	326.45677	316.00990	324.03718	346.28000	346.15714	345.00875	350.20991	338.13871	336.63628	329.38387	105.48645	105.46025	104.94808
17.5644	17.5711	133	78	391.85793	183.16088	146.56184	135.80397	176.61215	136.58011	176.09239	362.45149	1023.1121	407.37029	320.18555	358.33210	326.38251	315.94418	323.96588	346.20833	346.10234	344.92965	350.16221	338.06534	336.62446	329.30569	105.46424	105.43740	104.92247
17.5711	17.5778	179	93	391.78393	183.12390	146.53253	135.77851	176.58199	136.55254	176.05726	362.37864	1022.9085	407.28836	320.12129	358.28114	326.30945	315.88168	323.89800	346.13896	346.04959	344.85300	350.11611	337.99342	336.61331	329.22841	105.44271	105.41568	104.89769
17.5778	17.5845	182	106	391.71047	183.08694	146.50343	135.75331	176.55266	136.52506	176.02241	362.30612	1022.7066	407.20674	320.05734	358.23045	326.23668	315.81989	323.83088	346.07012	345.99730	344.77691	350.07036	337.92186	336.60231	329.15138	105.42134	105.39421	104.87310
17.5845	17.5912	257	89	391.63611	183.05068	146.47477	135.72967	176.52097	136.49813	175.98776	362.23428	1022.5029	407.12629	319.99335	358.18079	326.16457	315.75642	323.76097	346.00087	345.94369	344.70092	350.02414	337.85043	336.59437	329.07513	105.40041	105.37322	104.84654
17.5912	17.5979	337	93	391.55949	183.01343	146.44546	135.70531	176.48819	136.47042	175.95235	362.16046	1022.2930	407.04351	319.92757	358.12911	326.09063	315.69118	323.68943	345.92967	345.88805	344.62299	349.97587	337.77714	336.58420	328.99691	105.37879	105.35164	104.81915
17.5979	17.6046	380	83	391.46286	182.96704	146.41022	135.67400	176.44634	136.43548	175.91010	362.06852	1022.0283	406.93937	319.84569	358.05870	326.00016	315.61063	323.60436	345.84118	345.81444	344.52756	349.90917	337.68719	336.55248	328.90083	105.35070	105.32454	104.78489
17.6046	17.6113	411	79	391.36424	182.91961	146.37449	135.64157	176.40331	136.40015	175.86709	361.97452	1021.7592	406.83309	319.76208	357.98633	325.90799	315.52837	323.51700	345.75082	345.73894	344.43023	349.84073	337.59535	336.52064	328.80303	105.32218	105.29682	104.75075
17.6113	17.6180	418	97	391.25899	182.86872	146.33711	135.60541	176.35636	136.36353	175.82152	361.87364	1021.4749	406.71970	319.67270	357.90737	325.81010	315.44039	323.42199	345.65424	345.65718	344.32655	349.76651	337.49718	336.48835	328.69944	105.29223	105.26702	104.71698
17.6180	17.6247	343	98	391.15160	182.81730	146.29899	135.56886	176.30859	136.32706	175.77540	361.77119	1021.1846	406.60451	319.58183	357.82815	325.71037	315.35078	323.32600	345.55582	345.57397	344.22154	349.68991	337.39719	336.45278	328.59406	105.26143	105.23697	104.68118
17.6247	17.6314	280	99	391.04039	182.76490	146.25954	135.53159	176.25933	136.29078	175.72827	361.66590	1020.8834	406.48607	319.48823	357.74838	325.60733	315.25825	323.22820	345.45412	345.48816	344.11410	349.60910	337.29390	336.41149	328.48547	105.22914	105.20646	104.64183
17.6314	17.6381	236	98	390.92978	182.71379	146.21952	135.49338	176.20983	136.25426	175.68034	361.56069	1020.5845	406.36765	319.39450	357.67246	325.50476	315.16578	323.12997	345.35269	345.40173	344.00667	349.52846	337.19102	336.36966	328.37641	105.19701	105.17583	104.60490
17.6381	17.6448	166	86	390.81979	182.66396	146.17895	135.45425	176.16010	136.21750	175.63161	361.45560	1020.2878	406.24930	319.30067	357.60040	325.40270	315.07339	323.03134	345.25156	345.31470	343.89927	349.44801	337.08858	336.32731	328.26690	105.16503	105.14510	104.57040
17.6448	17.6515	135	79	390.71889	182.61815	146.14230	135.42004	176.11443	136.18357	175.58759	361.35977	1020.0144	406.14492	319.21519	357.54461	325.30878	314.98889	322.94043	345.15857	345.23507	343.80044	349.37554	336.99420	336.29483	328.16497	105.13585	105.11709	104.53709
17.6515	17.6582	112	84	390.62330	182.57469	146.10793	135.38870	176.07114	136.15130	175.54632	361.26934	1019.7545	406.04866	319.13458	357.49821	325.21963	314.90900	322.85404	345.07033	345.15977	343.70661	349.30772	336.90454	336.26805	328.06748	105.10830	105.09067	104.50447
17.6582	17.6649	92	83	390.57700	182.55511	146.09045	135.37260	176.05094	136.13584	175.52569	361.22470	1019.6224	406.00605	319.09376	357.49503	325.17026	314.86877	322.80992	345.02627	345.12851	343.65641	349.28346	336.85746	336.27516	328.01115	105.09354	105.07719	104.48703
17.6649	17.6716	94	86	390.54546	182.54269	146.07802	135.36107	176.03766	136.12542	175.51123	361.19377	1019.5285	405.97951	319.06487	357.50482	325.13280	314.84041	322.77846	344.99543	345.11044	343.61926	349.27225	336.82313	336.29245	327.96713	105.08262	105.06757	104.47413
17.6716	17.6783	104	105	390.52481	182.53455	146.07169	135.35434	176.02782	136.11852	175.50255	361.17340	1019.4645	405.96318	319.04508	357.52349	325.10607	314.82042	322.75371	344.97343	345.10366	343.59245	349.27265	336.79846	336.31308	327.92922	105.07547	105.06111	104.46523
17.6783	17.6850	90	92	390.50534	182.52685	146.06592	135.34810	176.01837	136.11200	175.49445	361.15418	1019.4036	405.94787	319.02625	357.54306	325.08044	314.80133	322.72978	344.95240	345.09800	343.56668	349.27425	336.77476	336.33426	327.89188	105.06871	105.05497	104.45680
17.6850	17.6917	78	74	390.48641	182.51878	146.05786	135.34130	176.00978	136.10564	175.48558	361.13561	1019.3424	405.93092	319.00688	357.56182	325.05361	314.78258	322.70874	344.93204	345.09007	343.53933	349.27485	336.74988	336.36005	327.85262	105.06158	105.04883	104.44924
17.6917	17.6984	94	90	390.46357	182.50874	146.04858	135.33314	175.99946	136.09784	175.47499	361.11366	1019.2713	405.90952	318.98445	357.57606	325.02384	314.76072	322.68719	344.90819	345.07873	343.50895	349.27226	336.72189	336.38317	327.81018	105.05352	105.04164	104.44070
17.6984	17.7051	79	77	390.42181	182.48921	146.03342	135.31843	175.98079	136.08306	175.45615	361.07539	1019.1525	405.86670	318.94719	357.56862	324.97984	314.72386	322.66311	344.86741	345.05100	343.46387	349.25429	336.67889	336.39354	327.75229	105.04102	105.02941	104.42742
17.7051	17.7118	91	93	390.37515	182.46754	146.01619	135.30219	175.95951	136.06671	175.43510	361.03259	1019.0204	405.81905	318.90592	357.55607	324.93135	314.68281	322.63719	344.82237	345.01907	343.41456	349.23173	336.63130	336.39857	327.68952	105.02715	105.01578	104.41283
17.7118	17.7185	81	69	390.31746	182.44103	145.99430	135.28249	175.93232	136.04681	175.40908	360.97955	1018.8586	405.76049	318.85559	357.53200	324.87272	314.63228	322.60709	344.76768	344.97766	343.35566	349.19878	336.57331	336.39148	327.61573	105.01023	104.99901	104.39526
17.7185	17.7252	72	88	390.25783	182.41339	145.97154	135.26169	175.90524	136.02597	175.38198	360.92392	1018.6909	405.69889	318.80329	357.50576	324.81240	314.58038	322.57516	344.71106	344.93313	343.29462	349.16348	336.51343	336.38282	327.54021	104.99268	104.98180	104.37695
17.7252	17.7319	72	74	390.19585	182.38435	145.94770	135.23954	175.87834	136.00395	175.35353	360.86506	1018.5160	405.63352	318.74856	357.47682	324.74998	314.52682	322.54093	344.65209	344.88468	343.23094	349.12526	336.45125	336.37219	327.46257	104.97438	104.96407	104.35773
17.7319	17.7386	71	92	390.13348	182.35513	145.92429	135.21745	175.84986	135.98229	175.32542	360.80646	1018.3424	405.56911	318.69437	357.44853	324.68839	314.47351	322.50924	344.59307	344.83610	343.16826	349.08727	336.38944	336.36180	327.38652	104.95637	104.94617	104.33877
17.7386	17.7453	82	97	390.07079	182.32578	145.90119	135.19540	175.82022	135.96089	175.29754	360.74801	1018.1697	405.50537	318.64055	357.42070	324.62735	314.42035	322.47940	344.53400	344.78741	343.10626	349.04943	336.32788	336.35159	327.31160	104.93858	104.92814	104.32001
17.7453	17.7520	97	86	390.00969	182.29689	145.87774	135.17400	175.79207	135.93898	175.26930	360.68906	1017.9970	405.44032	318.58611	357.39147	324.56558	314.36618	322.43491	344.47523	344.73624	343.04458	349.01133	336.26618	336.34017	327.24064	104.92064	104.91036	104.30100
17.7520	17.7587	100	89	389.94923	182.26819	145.85414	135.15286	175.76453	135.91686	175.24092	360.62988	1017.8244	405.37472	318.53140	357.36166	324.50349	314.31158	322.38440	344.41657	344.68405	342.98301	348.97313	336.20441	336.32825	327.17128	104.90262	104.89268	104.28187
17.7587	17.7654	92	80	389.88299	182.23615	145.82862	135.12876	175.73381	135.89318	175.21012	360.56613	1017.6355	405.30444	318.47294	357.32661	324.43679	314.25391	322.34145	344.35297	344.62675	342.91764	348.93090	336.13861	336.31313	327.10501	104.88337	104.87346	104.26156
17.7654	17.7721	118	68	389.81573	182.20351	145.80276	135.10412	175.70253	135.86923	175.17889	360.50159	1017.4438	405.23334	318.41382	357.29061	324.36929	314.19571	322.29993	344.28849	344.56855	342.85161	348.88796	336.07211	336.29742	327.03936	104.86390	104.85398	104.24105
17.7721	17.7788	79	86	389.73969	182.16605	145.77314	135.07711	175.66589	135.84142	175.14312	360.42603	1017.2243	405.15061	318.34568	357.24447	324.29373	314.12833	322.23860	344.21428	344.50405	342.77774	348.83546	335.99864	336.26699	326.96498	104.84135	104.83116	104.21746
17.7788	17.7855	100	84	389.66337	182.12855	145.74329	135.04990	175.62929	135.81347	175.10719	360.35019	1017.0042	405.06751	318.27732	357.19808	324.21788	314.06062	322.17679	344.13983	344.43976	342.70371	348.78265	335.92524	336.23694	326.89047	104.81875	104.80833	104.19378
17.7855	17.7922	91	90	389.58640	182.09153	145.71230	135.02158	175.59402	135.78511	175.07079	360.27409	1016.7836	404.98348	318.20882	357.15143	324.14123	313.99193	322.11468	344.06520	344.37826	342.62983	348.72904	335.85363	336.21256	326.81643	104.79640	104.78605	104.16992
17.7922	17.7989	85	91	389.51051	182.05419	145.68181	134.99342	175.55841	135.75691	175.03453	360.19814	1016.5641	404.89961	318.14030	357.10455	324.06444	313.92336	322.05324	343.99071	344.31695	342.55489	348.67548	335.78276	336.18693	326.74224	104.77396	104.76366	104.14617
17.7989	17.8056	69	79	389.43815	182.01597	145.65293	134.96583	175.52181	135.72925	174.99877	360.12279	1016.3484	404.81641	318.07188	357.05708	323.98739	313.85532	321.99400	343.91677	344.25637	342.47685	348.62217	335.71434	336.15757	326.66774	104.75128	104.74097	104.12285
17.8056	17.8123	58	74	389.36368	181.97814	145.62318	134.93817	175.48528	135.70126	174.96272	360.04691	1016.1299	404.73292	318.00350	357.00901	323.91053	313.78738	321.93333	343.84235	344.19652	342.39738	348.56822	335.64678	336.12787	326.59304	104.72861	104.71824	104.09918
17.8123	17.8190	64	89	389.28575	181.94093	145.59201	134.91037	175.44885	135.67268	174.92618	359.97013	1015.9069	404.64894	317.93515	356.95995	323.83392	313.71956	321.87029	343.76710	344.13782	342.31552	348.51319	335.58061	336.09762	326.51798	104.70596	104.69545	104.07496
17.8190	17.8257	57	104	389.20238	181.90079	145.55956	134.88055	175.41065	135.64264	174.88756	359.88910	1015.6716	404.55937	317.86509	356.90747	323.75334	313.64705	321.80257	343.68777	344.07583	342.22957	348.45408	335.51019	336.06322	326.43897	104.68188	104.67132	104.04974
17.8257	17.8324	52	86	389.11385	181.85787	145.52591	134.84881	175.37079	135.61121	174.84698	359.80405	1015.4246	404.46451	317.79340	356.85174	323.66899	313.57011	321.73041	343.60457	344.01070	342.13972	348.39108	335.43573	336.02490	326.35620	104.65646	104.64594	104.02357
17.8324	17.8391	40	81	389.02290	181.81568	145.49239	134.81780	175.33014	135.57983	174.80630	359.71908	1015.1787	404.37107	317.72375	356.79509	323.58407	313.49410	321.65914	343.52144	343.94599	342.05000	348.32810	335.35994	335.98715	326.27338	104.63092	104.62075	103.99728
17.8391	17.8458	45	73	388.93071	181.77393	145.45897	134.78720	175.28910	135.54852	174.76562	359.63423	1014.9338	404.27847	317.65526	356.73800	323.49892	313.41867	321.58842	343.43842	343.88156	341.96043	348.26518	335.28350	335.94973	326.19061	104.60533	104.59569	103.97093
17.8458	17.8525	48	81	388.83697	181.73191	145.42519	134.75626	175.24930	135.51705	174.72571	359.54976	1014.6878	404.18437	317.58543	356.68248	323.41437	313.34327	321.51739	343.35513	343.81672	341.87040	348.20227	335.20688	335.91154	326.10800	104.58020	104.57051	103.94449
17.8525	17.8592	41	76	388.74288	181.68986	145.39135	134.72525	175.20987	135.48556	174.68603	359.46547	1014.4416	404.08994	317.51529	356.62743	323.33005	313.26794	321.44633	343.27182	343.75182	341.78031	348.13940	335.13028	335.87316	326.02549	104.55522	104.54531	103.91803
17.8592	17.8659	32	90	388.64611	181.64648	145.35701	134.69323	175.16844	135.45317	174.64418	359.37790	1014.1920	403.99322	317.44208	356.56838	323.24327	313.18930	321.37023	343.18621	343.68513	341.68770	348.07458	335.04774	335.83504	325.94027	104.52929	104.51926	103.89109
17.8659	17.8726	42	59	388.54859	181.60273	145.32241	134.66097	175.12665	135.42053	174.60193	359.28956	1013.9406	403.89582	317.36804	356.50839	323.15581	313.10996	321.29344	343.09992	343.61778	341.59439	348.00910	334.96432	335.79632	325.85437	104.50311	104.49297	103.86393
17.8726	17.8793	52	100	388.44286	181.55492	145.28423	134.62633	175.08215	135.38520	174.55635	359.19339	1013.6630	403.79072	317.28484	356.43854	323.06119	313.02426	321.21341	343.00622	343.54194	341.49349	347.93537	334.87537	335.74700	325.76156	104.47447	104.46420	103.83403
17.8793	17.8860	52	96	388.33706	181.50714	145.24611	134.59173	175.03741	135.34986	174.51085	359.09735	1013.3855	403.68528	317.20197	356.36930	322.96656	312.93870	321.13212	342.91253	343.46617	341.39270	347.86168	334.78622	335.69789	325.66873	104.44586	104.43549	103.80427
17.8860	17.8927	49	67	388.23099	181.45946	145.20819	134.55727	174.99156	135.31444	174.46567	359.00183	1013.1080	403.57829	317.12052	356.30268	322.87187	312.85368	321.04529	342.81881	343.39065	341.29234	347.78814	334.69614	335.64964	325.57578	104.41737	104.40697	103.77514
17.8927	17.8994	33	90	388.12495	181.41181	145.17045	134.52253	174.94748	135.27908	174.42047	358.90634	1012.8313	403.47167	317.03841	356.23534	322.77727	312.76830	320.96031	342.72512	343.31524	341.19184	347.71443	334.60554	335.59974	325.48280	104.38881	104.37858	103.74572
17.8994	17.9061	31	78	388.01881	181.36415	145.13303	134.48719	174.90709	135.24384	174.37516	358.81076	1012.5558	403.36568	316.95478	356.16638	322.68271	312.68199	320.87910	342.63134	343.23996	341.09091	347.64026	334.51370	335.54627	325.38960	104.36009	104.35042	103.71562
17.9061	17.9128	42	88	387.91458	181.31741	145.09620	134.45403	174.86616	135.20905	174.33042	358.71675	1012.2863	403.26160	316.87307	356.10081	322.58972	312.59731	320.79790	342.53915	343.16590	340.99176	347.56812	334.42403	335.49718	325.29788	104.33189	104.32242	103.68634
17.9128	17.9195	48	75	387.81263	181.27177	145.06007	134.42347	174.82457	135.17482	174.28638	358.62466	1012.0238	403.15982	316.79366	356.03929	322.49865	312.51459	320.71672	342.44889	343.09330	340.89475	347.49843	334.33697	335.45335	325.20796	104.30433	104.29461	103.65805
17.9195	17.9262	40	81	387.72212	181.23166	145.02883	134.39658	174.78709	135.14519	174.24886	358.54391	1011.8012	403.07032	316.72332	355.98666	322.41727	312.44203	320.64562	342.36913	343.03129	340.80806	347.43836	334.25883	335.41939	325.12801	104.28008	104.27021	103.63260
17.9262	17.9329	35	74	387.63965	181.19542	145.00102	134.37225	174.75248	135.11880	174.21591	358.47114	1011.6065	402.98943	316.65934	355.94024	322.34271	312.37660	320.58160	342.29674	342.97669	340.72863	347.38504	334.18695	335.39233	325.05506	104.25815	104.24819	103.60914
17.9329	17.9396	47	93	387.56541	181.16317	144.97668	134.34883	174.72023	135.09486	174.18662	358.40636	1011.4244	402.91701	316.60130	355.90162	322.27433	312.31644	320.52484	342.23113	342.92948	340.65625	347.33984	334.12274	335.36851	324.98857	104.23814	104.22814	103.58800
17.9396	17.9463	40	86	387.49426	181.13243	144.95366	134.32575	174.68887	135.07184	174.15872	358.34459	1011.2470	402.84777	316.54547	355.86593	322.20826	312.25825	320.47081	342.16806	342.88506	340.58652	347.29770	334.06142	335.34590	324.92450	104.21886	104.20882	103.56772
17.9463	17.9530	41	91	387.45432	181.11668	144.94402	134.31216	174.67109	135.06102	174.14551	358.31296	1011.1670	402.81190	316.51602	355.86009	322.16965	312.22585	320.44118	342.13306	342.86766	340.54425	347.28371	334.02739	335.35761	324.88688	104.20814	104.19843	103.55585
17.9530	17.9597	49	85	387.41951	181.10340	144.93658	134.30012	174.65554	135.05220	174.13473	358.28627	1011.1031	402.78151	316.49089	355.85915	322.13554	312.19769	320.41555	342.10267	342.85471	340.50650	347.27435	333.99784	335.37497	324.85361	104.19884	104.18951	103.54536
17.9597	17.9664	31	83	387.38550	181.09162	144.92712	134.28845	174.63976	135.04520	174.12440	358.25872	1011.0261	402.75181	316.46581	355.86232	322.10001	312.17024	320.39122	342.07230	342.84266	340.46901	347.26477	333.96733	335.38567	324.82066	104.18943	104.18010	103.53462
17.9664	17.9731	43	77	387.35079	181.07952	144.91696	134.27651	174.62382	135.03779	174.11333	358.23066	1010.9486	402.72175	316.44027	355.86508	322.06408	312.14226	320.36637	342.04138	342.83027	340.43102	347.25476	333.93635	335.39611	324.78719	104.17988	104.17053	103.52379
17.9731	17.9798	43	81	387.31113	181.06503	144.90210	134.26269	174.60674	135.02740	174.09703	358.19905	1010.8681	402.68899	316.41151	355.86487	322.02527	312.11036	320.33772	342.00664	342.81546	340.38942	347.24186	333.90205	335.40509	324.75002	104.16933	104.15985	103.51227
17.9798	17.9865	42	96	387.27074	181.05032	144.88701	134.24865	174.58892	135.01623	174.07993	358.16682	1010.7838	402.65588	316.38173	355.86402	321.98565	312.07765	320.30814	341.97120	342.80004	340.34713	347.22839	333.86680	335.41374	324.71206	104.15861	104.14898	103.50037
17.9865	17.9932	47	72	387.22828	181.03494	144.87127	134.23398	174.56902	135.00282	174.06060	358.13286	1010.6887	402.62179	316.34912	355.86136	321.94376	312.04265	320.27598	341.93380	342.78289	340.30289	347.21330	333.82883	335.42142	324.67186	104.14741	104.13759	103.48739
17.9932	17.9999	47	95	387.18602	181.01939	144.85546	134.21936	174.54978	134.98900	174.04160	358.09873	1010.5909	402.58806	316.31753	355.85773	321.90235	312.00861	320.24464	341.89657	342.76522	340.25869	347.19771	333.79092	335.42742	324.63200	104.13623	104.12640	103.47474
