# do not edit -- automatically generated Mon Aug 27 17:14:16 2018 from /susfu/kashyap/solar/ISSI/Capella_O7/binned_14t18.pro
# 
# events in wavelength region [14.00,18.00] Ang
# 
# BACKSCAL = 1.00000
#columns are:
#WLOW: wavelength grid bin lower bound [Angstrom]
#WHIGH: wavelength grid bin upper bound [Angstrom]
#SRCCT: counts in bin [ct]
#BKGCT: background counts in bin [ct]
#EA{p|n}_OBSID: effective area for each ObsID [cm^2 ksec]
WLOW	WHIGH	SRCCT	BKGCT	EAn_19837
N	N	N	N	N
14.0000	14.0067	13	3	131.53987
14.0067	14.0134	12	4	131.38888
14.0134	14.0201	11	5	131.23494
14.0201	14.0268	9	3	131.08132
14.0268	14.0335	17	4	130.92698
14.0335	14.0402	14	4	130.77197
14.0402	14.0469	16	6	130.61739
14.0469	14.0536	6	5	130.46229
14.0536	14.0603	5	3	130.30264
14.0603	14.0670	10	5	130.13631
14.0670	14.0737	11	1	129.97102
14.0737	14.0804	17	3	129.80717
14.0804	14.0871	7	3	129.66972
14.0871	14.0938	14	2	129.53635
14.0938	14.1005	5	4	129.40495
14.1005	14.1072	9	2	129.27547
14.1072	14.1139	8	4	129.14483
14.1139	14.1206	11	4	129.01535
14.1206	14.1273	5	2	128.88500
14.1273	14.1340	5	2	128.75497
14.1340	14.1407	10	3	128.62489
14.1407	14.1474	14	3	128.50126
14.1474	14.1541	10	3	128.40162
14.1541	14.1608	15	3	128.30336
14.1608	14.1675	7	4	128.19874
14.1675	14.1742	9	4	128.05787
14.1742	14.1809	13	3	127.90041
14.1809	14.1876	27	5	127.74140
14.1876	14.1943	55	2	127.58340
14.1943	14.2010	78	2	127.42483
14.2010	14.2077	53	3	127.26591
14.2077	14.2144	31	3	127.10777
14.2144	14.2211	13	4	126.95000
14.2211	14.2278	6	4	126.80021
14.2278	14.2345	8	5	126.65188
14.2345	14.2412	13	2	126.49013
14.2412	14.2479	20	3	126.32281
14.2479	14.2546	26	2	126.16820
14.2546	14.2613	13	3	126.02160
14.2613	14.2680	16	4	125.89830
14.2680	14.2747	7	4	125.83903
14.2747	14.2814	9	5	125.78703
14.2814	14.2881	9	4	125.81182
14.2881	14.2948	3	3	126.05468
14.2948	14.3015	8	4	126.33703
14.3015	14.3082	6	4	126.61877
14.3082	14.3149	6	2	126.89891
14.3149	14.3216	4	1	127.06511
14.3216	14.3283	6	4	127.11102
14.3283	14.3350	7	3	127.08708
14.3350	14.3417	10	5	127.00542
14.3417	14.3484	15	0	126.84291
14.3484	14.3551	18	5	126.67857
14.3551	14.3618	24	2	126.51390
14.3618	14.3685	29	2	126.35294
14.3685	14.3752	26	4	126.19286
14.3752	14.3819	9	1	126.03487
14.3819	14.3886	12	5	125.87515
14.3886	14.3953	11	4	125.71442
14.3953	14.4020	21	2	125.55122
14.4020	14.4087	8	5	125.35167
14.4087	14.4154	8	3	125.12275
14.4154	14.4221	11	1	124.88175
14.4221	14.4288	6	2	124.63258
14.4288	14.4355	7	3	124.35031
14.4355	14.4422	6	3	124.05803
14.4422	14.4489	12	2	123.76511
14.4489	14.4556	11	2	123.46913
14.4556	14.4623	11	4	123.15447
14.4623	14.4690	11	3	122.84061
14.4690	14.4757	7	4	122.52823
14.4757	14.4824	11	4	122.24067
14.4824	14.4891	3	3	121.98047
14.4891	14.4958	10	4	121.72154
14.4958	14.5025	6	6	121.46521
14.5025	14.5092	9	4	121.23777
14.5092	14.5159	11	1	121.09786
14.5159	14.5226	24	3	120.97659
14.5226	14.5293	20	4	120.86418
14.5293	14.5360	28	3	120.80504
14.5360	14.5427	23	2	120.79072
14.5427	14.5494	15	4	120.79247
14.5494	14.5561	14	2	120.79712
14.5561	14.5628	12	1	120.85336
14.5628	14.5695	9	1	120.90843
14.5695	14.5762	10	5	120.96258
14.5762	14.5829	5	5	121.01563
14.5829	14.5896	7	2	121.06969
14.5896	14.5963	6	3	121.12295
14.5963	14.6030	9	3	121.17534
14.6030	14.6097	9	2	121.22758
14.6097	14.6164	5	5	121.27000
14.6164	14.6231	11	3	121.24418
14.6231	14.6298	8	2	121.21966
14.6298	14.6365	4	7	121.19695
14.6365	14.6432	5	3	121.17309
14.6432	14.6499	11	2	121.11459
14.6499	14.6566	15	3	121.03075
14.6566	14.6633	8	0	120.93890
14.6633	14.6700	8	0	120.81695
14.6700	14.6767	6	5	120.68391
14.6767	14.6834	8	3	120.55128
14.6834	14.6901	11	3	120.41736
14.6901	14.6968	8	2	120.28194
14.6968	14.7035	7	2	120.14344
14.7035	14.7102	6	1	120.00546
14.7102	14.7169	2	1	119.86861
14.7169	14.7236	2	5	119.73619
14.7236	14.7303	5	1	119.60837
14.7303	14.7370	10	4	119.48128
14.7370	14.7437	11	4	119.35537
14.7437	14.7504	12	1	119.22865
14.7504	14.7571	13	4	119.13271
14.7571	14.7638	8	7	119.05225
14.7638	14.7705	8	3	118.97341
14.7705	14.7772	5	5	118.89443
14.7772	14.7839	7	2	118.81696
14.7839	14.7906	8	2	118.73875
14.7906	14.7973	3	0	118.65850
14.7973	14.8040	7	1	118.55747
14.8040	14.8107	6	0	118.44598
14.8107	14.8174	9	7	118.33449
14.8174	14.8241	6	5	118.22230
14.8241	14.8308	6	5	118.11057
14.8308	14.8375	8	2	117.99614
14.8375	14.8442	8	6	117.88139
14.8442	14.8509	4	2	117.74647
14.8509	14.8576	7	4	117.57238
14.8576	14.8643	6	2	117.39947
14.8643	14.8710	11	4	117.22741
14.8710	14.8777	11	3	117.05585
14.8777	14.8844	5	1	116.88469
14.8844	14.8911	3	6	116.71232
14.8911	14.8978	10	7	116.54108
14.8978	14.9045	15	2	116.37084
14.9045	14.9112	10	1	116.20702
14.9112	14.9179	10	4	116.06747
14.9179	14.9246	5	4	115.92811
14.9246	14.9313	5	3	115.79001
14.9313	14.9380	5	3	115.69862
14.9380	14.9447	10	4	115.66429
14.9447	14.9514	6	3	115.63969
14.9514	14.9581	3	2	115.61524
14.9581	14.9648	11	2	115.59019
14.9648	14.9715	6	4	115.56615
14.9715	14.9782	8	5	115.66054
14.9782	14.9849	18	5	116.07532
14.9849	14.9916	38	5	116.56206
14.9916	14.9983	92	3	117.18790
14.9983	15.0050	124	8	117.81320
15.0050	15.0117	113	3	118.43725
15.0117	15.0184	74	1	119.06209
15.0184	15.0251	31	3	119.67008
15.0251	15.0318	18	1	120.19386
15.0318	15.0385	4	3	120.64410
15.0385	15.0452	12	2	120.98726
15.0452	15.0519	10	6	121.20209
15.0519	15.0586	16	6	121.05154
15.0586	15.0653	11	2	120.86204
15.0653	15.0720	21	3	120.67279
15.0720	15.0787	14	1	120.48237
15.0787	15.0854	9	2	120.29318
15.0854	15.0921	13	6	120.10529
15.0921	15.0988	9	1	119.91800
15.0988	15.1055	3	3	119.74946
15.1055	15.1122	6	1	119.60083
15.1122	15.1189	5	3	119.45500
15.1189	15.1256	6	3	119.35864
15.1256	15.1323	7	3	119.30198
15.1323	15.1390	2	4	119.24679
15.1390	15.1457	9	2	119.19142
15.1457	15.1524	9	2	119.13685
15.1524	15.1591	10	5	119.08202
15.1591	15.1658	14	7	119.02683
15.1658	15.1725	10	4	118.97039
15.1725	15.1792	11	1	118.91511
15.1792	15.1859	10	3	118.85965
15.1859	15.1926	13	5	118.79811
15.1926	15.1993	14	3	118.71106
15.1993	15.2060	11	4	118.60233
15.2060	15.2127	6	4	118.45389
15.2127	15.2194	8	5	118.25732
15.2194	15.2261	7	2	118.06112
15.2261	15.2328	10	4	117.86111
15.2328	15.2395	27	2	117.61845
15.2395	15.2462	43	3	117.34731
15.2462	15.2529	40	3	117.07640
15.2529	15.2596	56	3	116.80653
15.2596	15.2663	18	1	116.53680
15.2663	15.2730	13	4	116.26822
15.2730	15.2797	16	4	116.00194
15.2797	15.2864	12	3	115.73660
15.2864	15.2931	8	6	115.47194
15.2931	15.2998	8	4	115.20834
15.2998	15.3065	6	3	114.96131
15.3065	15.3132	5	5	114.68793
15.3132	15.3199	4	5	114.41110
15.3199	15.3266	3	3	114.14552
15.3266	15.3333	8	4	113.90275
15.3333	15.3400	11	3	113.66006
15.3400	15.3467	14	4	113.41831
15.3467	15.3534	10	2	113.17613
15.3534	15.3601	7	5	112.93373
15.3601	15.3668	10	1	112.73434
15.3668	15.3735	7	6	112.55776
15.3735	15.3802	11	4	112.38171
15.3802	15.3869	5	1	112.20506
15.3869	15.3936	9	6	112.02857
15.3936	15.4003	4	5	111.85298
15.4003	15.4070	3	1	111.71296
15.4070	15.4137	1	3	111.59531
15.4137	15.4204	6	2	111.46994
15.4204	15.4271	7	4	111.34085
15.4271	15.4338	6	3	111.20996
15.4338	15.4405	22	5	111.07918
15.4405	15.4472	9	4	110.94844
15.4472	15.4539	9	5	110.81862
15.4539	15.4606	7	5	110.68801
15.4606	15.4673	6	7	110.55767
15.4673	15.4740	9	4	110.41294
15.4740	15.4807	5	3	110.23967
15.4807	15.4874	7	4	110.06323
15.4874	15.4941	6	3	109.88654
15.4941	15.5008	6	3	109.71151
15.5008	15.5075	2	6	109.53556
15.5075	15.5142	5	8	109.35913
15.5142	15.5209	5	2	109.18224
15.5209	15.5276	5	4	109.00637
15.5276	15.5343	3	7	108.83126
15.5343	15.5410	8	3	108.65714
15.5410	15.5477	4	7	108.49315
15.5477	15.5544	4	2	108.32705
15.5544	15.5611	2	6	108.15868
15.5611	15.5678	6	3	107.98993
15.5678	15.5745	3	2	107.82990
15.5745	15.5812	3	4	107.68553
15.5812	15.5879	4	3	107.54507
15.5879	15.5946	4	3	107.40467
15.5946	15.6013	9	5	107.26414
15.6013	15.6080	27	7	107.12401
15.6080	15.6147	25	1	106.98423
15.6147	15.6214	20	0	106.84478
15.6214	15.6281	11	3	106.70493
15.6281	15.6348	6	4	106.56524
15.6348	15.6415	7	5	106.41346
15.6415	15.6482	4	4	106.24931
15.6482	15.6549	4	2	106.08545
15.6549	15.6616	2	4	105.92241
15.6616	15.6683	5	1	105.75996
15.6683	15.6750	4	2	105.59806
15.6750	15.6817	3	5	105.43632
15.6817	15.6884	4	6	105.28075
15.6884	15.6951	3	4	105.10643
15.6951	15.7018	2	5	104.89726
15.7018	15.7085	8	2	104.68639
15.7085	15.7152	3	2	104.47547
15.7152	15.7219	4	4	104.26468
15.7219	15.7286	2	3	104.05501
15.7286	15.7353	3	4	103.84564
15.7353	15.7420	6	1	103.63401
15.7420	15.7487	9	3	103.42055
15.7487	15.7554	9	1	103.20781
15.7554	15.7621	8	0	102.99499
15.7621	15.7688	10	6	102.78224
15.7688	15.7755	3	4	102.56888
15.7755	15.7822	3	0	102.35659
15.7822	15.7889	0	2	102.14077
15.7889	15.7956	2	0	101.90219
15.7956	15.8023	7	3	101.65906
15.8023	15.8090	20	3	101.41636
15.8090	15.8157	16	4	101.17392
15.8157	15.8224	17	2	100.93600
15.8224	15.8291	10	4	100.70059
15.8291	15.8358	5	2	100.47394
15.8358	15.8425	8	3	100.25778
15.8425	15.8492	14	6	100.04233
15.8492	15.8559	13	4	99.827159
15.8559	15.8626	13	5	99.617111
15.8626	15.8693	9	3	99.421190
15.8693	15.8760	5	4	99.225828
15.8760	15.8827	4	1	99.036682
15.8827	15.8894	8	4	98.859172
15.8894	15.8961	5	6	98.682552
15.8961	15.9028	4	0	98.504703
15.9028	15.9095	1	8	98.325241
15.9095	15.9162	4	3	98.146360
15.9162	15.9229	4	1	97.967886
15.9229	15.9296	6	4	97.789695
15.9296	15.9363	6	5	97.611872
15.9363	15.9430	4	1	97.434106
15.9430	15.9497	6	4	97.256329
15.9497	15.9564	1	4	97.078778
15.9564	15.9631	1	4	96.901790
15.9631	15.9698	6	3	96.725451
15.9698	15.9765	8	5	96.552796
15.9765	15.9832	12	1	96.403970
15.9832	15.9899	40	2	96.255689
15.9899	15.9966	40	5	96.127238
15.9966	16.0033	27	4	96.038286
16.0033	16.0100	15	3	95.961818
16.0100	16.0167	7	2	95.885269
16.0167	16.0234	5	1	95.808006
16.0234	16.0301	4	2	95.752171
16.0301	16.0368	7	6	95.720016
16.0368	16.0435	4	2	95.690082
16.0435	16.0502	11	1	95.659482
16.0502	16.0569	28	3	95.628946
16.0569	16.0636	38	2	95.598851
16.0636	16.0703	34	3	95.570338
16.0703	16.0770	15	9	95.542979
16.0770	16.0837	17	3	95.515849
16.0837	16.0904	5	1	95.489169
16.0904	16.0971	10	5	95.488506
16.0971	16.1038	8	2	95.518443
16.1038	16.1105	2	2	95.546086
16.1105	16.1172	4	4	95.536550
16.1172	16.1239	5	1	95.465699
16.1239	16.1306	5	1	95.297455
16.1306	16.1373	3	4	95.117780
16.1373	16.1440	7	0	94.937890
16.1440	16.1507	9	2	94.779500
16.1507	16.1574	9	5	94.788640
16.1574	16.1641	7	4	94.769197
16.1641	16.1708	10	7	94.724277
16.1708	16.1775	5	1	94.679177
16.1775	16.1842	7	3	94.626822
16.1842	16.1909	8	3	94.570475
16.1909	16.1976	3	6	94.509184
16.1976	16.2043	3	1	94.432284
16.2043	16.2110	2	2	94.352408
16.2110	16.2177	2	2	94.272241
16.2177	16.2244	7	3	94.192178
16.2244	16.2311	7	2	94.111970
16.2311	16.2378	7	0	94.028207
16.2378	16.2445	4	3	93.944321
16.2445	16.2512	5	7	93.874763
16.2512	16.2579	8	6	93.818818
16.2579	16.2646	7	3	93.762680
16.2646	16.2713	9	2	93.706554
16.2713	16.2780	4	2	93.661246
16.2780	16.2847	9	1	93.629599
16.2847	16.2914	7	3	93.600640
16.2914	16.2981	9	3	93.571893
16.2981	16.3048	7	5	93.543070
16.3048	16.3115	10	4	93.510558
16.3115	16.3182	4	2	93.458882
16.3182	16.3249	4	4	93.406535
16.3249	16.3316	5	3	93.354314
16.3316	16.3383	5	5	93.305477
16.3383	16.3450	4	4	93.261274
16.3450	16.3517	1	2	93.213986
16.3517	16.3584	6	3	93.163778
16.3584	16.3651	2	8	93.088305
16.3651	16.3718	4	2	92.999254
16.3718	16.3785	1	6	92.910382
16.3785	16.3852	4	2	92.821580
16.3852	16.3919	0	5	92.733190
16.3919	16.3986	5	3	92.629906
16.3986	16.4053	7	3	92.482452
16.4053	16.4120	4	4	92.319157
16.4120	16.4187	3	3	92.139541
16.4187	16.4254	1	5	91.943798
16.4254	16.4321	6	2	91.736164
16.4321	16.4388	6	7	91.484131
16.4388	16.4455	5	2	91.232559
16.4455	16.4522	2	2	90.981224
16.4522	16.4589	4	4	90.729154
16.4589	16.4656	5	6	90.477652
16.4656	16.4723	3	4	90.226657
16.4723	16.4790	4	4	89.976302
16.4790	16.4857	3	2	89.722932
16.4857	16.4924	3	4	89.477286
16.4924	16.4991	1	3	89.261201
16.4991	16.5058	5	4	89.045815
16.5058	16.5125	3	5	88.830833
16.5125	16.5192	6	7	88.617010
16.5192	16.5259	5	0	88.412913
16.5259	16.5326	1	5	88.216127
16.5326	16.5393	3	3	88.051943
16.5393	16.5460	5	4	87.909407
16.5460	16.5527	5	2	87.767490
16.5527	16.5594	4	6	87.626177
16.5594	16.5661	6	3	87.484814
16.5661	16.5728	4	3	87.350509
16.5728	16.5795	7	4	87.248126
16.5795	16.5862	2	4	87.157677
16.5862	16.5929	7	4	87.069846
16.5929	16.5996	3	3	86.988381
16.5996	16.6063	0	7	86.908465
16.6063	16.6130	4	2	86.828626
16.6130	16.6197	6	4	86.748883
16.6197	16.6264	3	4	86.669273
16.6264	16.6331	5	3	86.579164
16.6331	16.6398	1	2	86.488676
16.6398	16.6465	3	5	86.397791
16.6465	16.6532	0	8	86.307187
16.6532	16.6599	3	3	86.215884
16.6599	16.6666	3	2	86.121758
16.6666	16.6733	0	3	85.976414
16.6733	16.6800	8	2	85.810579
16.6800	16.6867	6	3	85.645271
16.6867	16.6934	3	4	85.479852
16.6934	16.7001	2	2	85.314802
16.7001	16.7068	3	6	85.144557
16.7068	16.7135	4	3	84.930980
16.7135	16.7202	8	5	84.711203
16.7202	16.7269	6	3	84.492599
16.7269	16.7336	7	6	84.273860
16.7336	16.7403	5	3	84.055997
16.7403	16.7470	11	0	83.835009
16.7470	16.7537	25	2	83.591567
16.7537	16.7604	46	3	83.351364
16.7604	16.7671	75	5	83.111895
16.7671	16.7738	49	6	82.872522
16.7738	16.7805	29	3	82.633602
16.7805	16.7872	6	2	82.395479
16.7872	16.7939	2	5	82.158146
16.7939	16.8006	4	6	81.921225
16.8006	16.8073	10	4	81.687021
16.8073	16.8140	6	6	81.454873
16.8140	16.8207	6	2	81.223222
16.8207	16.8274	7	4	80.995887
16.8274	16.8341	8	0	80.783984
16.8341	16.8408	5	3	80.572888
16.8408	16.8475	7	1	80.362456
16.8475	16.8542	1	1	80.152705
16.8542	16.8609	8	2	79.944034
16.8609	16.8676	3	7	79.736693
16.8676	16.8743	5	0	79.534384
16.8743	16.8810	9	5	79.338488
16.8810	16.8877	6	4	79.149345
16.8877	16.8944	0	5	78.959814
16.8944	16.9011	5	5	78.770955
16.9011	16.9078	3	2	78.582949
16.9078	16.9145	4	2	78.395088
16.9145	16.9212	3	0	78.225686
16.9212	16.9279	5	5	78.076895
16.9279	16.9346	4	3	77.928274
16.9346	16.9413	1	3	77.779747
16.9413	16.9480	5	5	77.632676
16.9480	16.9547	1	5	77.486350
16.9547	16.9614	2	0	77.345947
16.9614	16.9681	6	3	77.211690
16.9681	16.9748	3	2	77.089386
16.9748	16.9815	6	2	76.978506
16.9815	16.9882	4	4	76.869015
16.9882	16.9949	3	6	76.758803
16.9949	17.0016	1	7	76.648500
17.0016	17.0083	6	1	76.538629
17.0083	17.0150	6	3	76.429034
17.0150	17.0217	6	2	76.319176
17.0217	17.0284	20	2	76.209717
17.0284	17.0351	41	4	76.100463
17.0351	17.0418	79	2	75.992846
17.0418	17.0485	63	2	75.884771
17.0485	17.0552	28	1	75.776748
17.0552	17.0619	10	3	75.666078
17.0619	17.0686	18	2	75.554527
17.0686	17.0753	31	0	75.443681
17.0753	17.0820	48	0	75.332678
17.0820	17.0887	72	1	75.217873
17.0887	17.0954	50	2	75.102631
17.0954	17.1021	26	1	74.975606
17.1021	17.1088	4	1	74.835897
17.1088	17.1155	6	1	74.696087
17.1155	17.1222	3	5	74.556736
17.1222	17.1289	4	4	74.417822
17.1289	17.1356	4	5	74.280056
17.1356	17.1423	5	1	74.143112
17.1423	17.1490	2	0	74.006848
17.1490	17.1557	12	6	73.870526
17.1557	17.1624	5	1	73.715316
17.1624	17.1691	4	5	73.550529
17.1691	17.1758	1	4	73.385973
17.1758	17.1825	1	4	73.225372
17.1825	17.1892	5	3	73.064857
17.1892	17.1959	2	4	72.904553
17.1959	17.2026	6	1	72.744411
17.2026	17.2093	4	1	72.584535
17.2093	17.2160	7	8	72.432324
17.2160	17.2227	10	4	72.290594
17.2227	17.2294	1	1	72.150287
17.2294	17.2361	2	3	72.010524
17.2361	17.2428	5	4	71.871048
17.2428	17.2495	1	3	71.731207
17.2495	17.2562	3	5	71.592417
17.2562	17.2629	3	3	71.465438
17.2629	17.2696	6	1	71.349475
17.2696	17.2763	6	4	71.229148
17.2763	17.2830	6	6	71.106944
17.2830	17.2897	5	7	70.984774
17.2897	17.2964	8	1	70.863003
17.2964	17.3031	1	5	70.741099
17.3031	17.3098	5	1	70.619991
17.3098	17.3165	3	2	70.500616
17.3165	17.3232	1	4	70.410378
17.3232	17.3299	2	3	70.339081
17.3299	17.3366	2	2	70.267682
17.3366	17.3433	4	2	70.196528
17.3433	17.3500	0	3	70.125434
17.3500	17.3567	7	2	70.054432
17.3567	17.3634	6	3	69.983629
17.3634	17.3701	2	0	69.925795
17.3701	17.3768	6	2	69.890611
17.3768	17.3835	4	3	69.857829
17.3835	17.3902	6	4	69.822044
17.3902	17.3969	6	6	69.783680
17.3969	17.4036	4	2	69.745595
17.4036	17.4103	6	3	69.707486
17.4103	17.4170	5	3	69.669499
17.4170	17.4237	6	2	69.630503
17.4237	17.4304	3	2	69.590849
17.4304	17.4371	3	5	69.551404
17.4371	17.4438	7	3	69.510841
17.4438	17.4505	3	5	69.470339
17.4505	17.4572	2	2	69.428128
17.4572	17.4639	1	2	69.365275
17.4639	17.4706	2	1	69.283576
17.4706	17.4773	7	2	69.201512
17.4773	17.4840	8	4	69.119011
17.4840	17.4907	7	5	69.036263
17.4907	17.4974	4	7	68.953839
17.4974	17.5041	3	4	68.871539
17.5041	17.5108	5	6	68.789774
17.5108	17.5175	1	2	68.708639
17.5175	17.5242	2	3	68.629323
17.5242	17.5309	4	3	68.539970
17.5309	17.5376	2	4	68.438935
17.5376	17.5443	6	2	68.338097
17.5443	17.5510	4	2	68.227408
17.5510	17.5577	6	3	68.113579
17.5577	17.5644	5	2	68.000246
17.5644	17.5711	7	5	67.888216
17.5711	17.5778	8	3	67.775547
17.5778	17.5845	1	5	67.654711
17.5845	17.5912	6	2	67.528648
17.5912	17.5979	10	3	67.403031
17.5979	17.6046	7	4	67.277986
17.6046	17.6113	11	2	67.156702
17.6113	17.6180	10	2	67.054901
17.6180	17.6247	9	3	66.951894
17.6247	17.6314	5	1	66.849360
17.6314	17.6381	1	4	66.746405
17.6381	17.6448	5	3	66.645871
17.6448	17.6515	3	2	66.546550
17.6515	17.6582	3	3	66.447255
17.6582	17.6649	3	5	66.349040
17.6649	17.6716	2	2	66.255659
17.6716	17.6783	5	3	66.163102
17.6783	17.6850	2	4	66.070313
17.6850	17.6917	3	3	65.974765
17.6917	17.6984	3	11	65.851213
17.6984	17.7051	2	4	65.721156
17.7051	17.7118	7	2	65.398343
17.7118	17.7185	3	2	65.041896
17.7185	17.7252	4	1	64.927448
17.7252	17.7319	1	3	64.813007
17.7319	17.7386	2	1	64.699594
17.7386	17.7453	2	1	64.586002
17.7453	17.7520	5	1	64.474393
17.7520	17.7587	8	2	64.385094
17.7587	17.7654	4	6	64.309435
17.7654	17.7721	5	2	64.235183
17.7721	17.7788	4	2	64.160671
17.7788	17.7855	5	2	64.086592
17.7855	17.7922	1	1	64.009463
17.7922	17.7989	3	2	63.918943
17.7989	17.8056	3	5	63.827022
17.8056	17.8123	2	1	63.735554
17.8123	17.8190	4	6	63.644528
17.8190	17.8257	2	1	63.554500
17.8257	17.8324	4	2	63.469448
17.8324	17.8391	1	7	63.384519
17.8391	17.8458	2	6	63.310724
17.8458	17.8525	2	4	63.238375
17.8525	17.8592	6	5	63.161087
17.8592	17.8659	3	2	63.084519
17.8659	17.8726	3	2	63.006551
17.8726	17.8793	1	4	62.927705
17.8793	17.8860	4	2	62.848909
17.8860	17.8927	6	3	62.769283
17.8927	17.8994	4	5	62.690606
17.8994	17.9061	4	6	62.612295
17.9061	17.9128	3	2	62.533723
17.9128	17.9195	2	1	62.455106
17.9195	17.9262	5	4	62.373602
17.9262	17.9329	5	3	62.291666
17.9329	17.9396	7	1	62.209894
17.9396	17.9463	4	6	62.127669
17.9463	17.9530	3	6	62.045847
17.9530	17.9597	4	1	61.964150
17.9597	17.9664	2	3	61.882900
17.9664	17.9731	2	1	61.801195
17.9731	17.9798	3	3	61.717929
17.9798	17.9865	5	3	61.634117
17.9865	17.9932	3	1	61.549843
17.9932	17.9999	2	2	61.465862
