# Combined Chandra effective areas for different detector/grating combinations for Capella observations
# made on Sun Oct 30 15:00:02 2016 with summary_ea.pro
# 
# Columns:
# WAVE -- wavelength [Ang]
# EA_AH -- exposure weighted effective area for ACIS/HEG [cm^2*sec]
# EA_AH_P -- exposure weighted effective area for +1 order ACIS/HEG [cm^2*sec]
# EA_AH_M -- exposure weighted effective area for -1 order ACIS/HEG [cm^2*sec]
# EA_AM -- exposure weighted effective area for ACIS/MEG [cm^2*sec]
# EA_AM_P -- exposure weighted effective area for +1 order ACIS/MEG [cm^2*sec]
# EA_AM_M -- exposure weighted effective area for -1 order ACIS/MEG [cm^2*sec]
# EA_AL -- exposure weighted effective area for ACIS/LEG [cm^2*sec]
# EA_AL_P -- exposure weighted effective area for +1 order ACIS/LEG [cm^2*sec]
# EA_AL_M -- exposure weighted effective area for -1 order ACIS/LEG [cm^2*sec]
# EA_HL -- exposure weighted effective area for HRC/LEG [cm^2*sec]
# EA_HL_P -- exposure weighted effective area for +1 order HRC/LEG [cm^2*sec]
# EA_HL_M -- exposure weighted effective area for -1 order HRC/LEG [cm^2*sec]
# 
WAVE	EA_AH	EA_AH_P	EA_AH_M	EA_AM	EA_AM_P	EA_AM_M	EA_AL	EA_AL_P	EA_AL_M	EA_HL	EA_HL_P	EA_HL_M
N	N	N	N	N	N	N	N	N	N	N	N	N
18.00250	4150852.0	1160691.4	2990160.7	4382125.3	1223703.5	3158421.8	3135368.4	2207453.8	927914.6	12964006.4	6309391.3	6654615.2
18.00750	4178915.5	1166268.5	3012647.0	4418908.1	1230121.0	3188787.0	3153110.1	2222178.3	930931.8	12963479.6	6308958.0	6654521.7
18.01250	4212096.5	1171944.9	3040151.5	4460945.3	1236638.1	3224307.1	3181446.0	2244615.0	936831.0	12962965.2	6308555.3	6654409.9
18.01750	4248722.9	1177386.2	3071336.7	4506904.8	1242919.8	3263985.0	3210360.2	2267331.7	943028.4	12962456.7	6308156.9	6654299.8
18.02250	4287529.2	1184564.6	3102964.7	4555465.3	1250938.9	3304526.4	3243640.5	2293123.9	950516.5	12962068.1	6307853.3	6654214.7
18.02750	4324006.3	1192121.8	3131884.4	4601823.1	1259336.6	3342486.5	3278609.3	2320097.9	958511.4	12961741.3	6307592.2	6654149.1
18.03250	4361546.6	1200834.8	3160711.8	4649247.9	1268890.3	3380357.7	3313517.7	2347013.1	966504.5	12961504.9	6307384.1	6654120.8
18.03750	4396345.8	1208713.6	3187632.2	4693950.4	1277609.5	3416340.9	3347923.8	2373677.9	974245.8	12961537.1	6307342.2	6654195.0
18.04250	4427833.0	1214991.8	3212841.3	4734618.8	1284728.4	3449890.4	3381699.2	2400254.7	981444.5	12961582.2	6307305.1	6654277.1
18.04750	4455684.4	1220433.4	3235251.0	4770933.1	1291010.4	3479922.7	3407831.4	2421840.8	985990.6	12961582.8	6307259.9	6654323.0
18.05250	4478257.9	1224976.3	3253281.6	4801969.6	1296393.7	3505575.9	3431219.3	2440853.2	990366.1	12961566.2	6307212.3	6654353.9
18.05750	4494073.4	1227247.9	3266825.5	4825408.2	1299506.1	3525902.1	3451621.2	2457641.1	993980.1	12961578.3	6307182.2	6654396.1
18.06250	4507128.2	1228831.5	3278296.7	4844840.4	1301930.0	3542910.3	3465892.3	2469778.6	996113.7	12961682.7	6307216.1	6654466.6
18.06750	4516308.3	1230058.2	3286250.1	4859433.5	1303997.5	3555436.0	3478713.4	2480703.3	998010.1	12961789.5	6307250.9	6654538.5
18.07250	4518915.4	1229200.4	3289715.0	4866500.5	1303980.1	3562520.5	3485248.7	2487438.1	997810.7	12961912.0	6307304.4	6654607.7
18.07750	4518683.8	1227165.9	3291517.8	4869899.4	1302615.2	3567284.2	3489317.9	2492474.9	996843.0	12962044.6	6307366.5	6654678.1
18.08250	4515937.7	1224978.6	3290959.1	4868674.3	1300547.0	3568127.3	3491690.5	2496138.4	995552.1	12962185.6	6307443.3	6654742.3
18.08750	4509316.2	1222118.2	3287198.0	4863254.9	1297783.7	3565471.2	3490861.1	2497049.5	993811.6	12962348.2	6307560.9	6654787.3
18.09250	4501714.2	1219510.0	3282204.2	4856905.2	1295210.9	3561694.3	3489928.4	2497878.1	992050.2	12962511.3	6307678.4	6654832.9
18.09750	4493992.3	1218383.0	3275609.3	4850197.0	1294089.0	3556108.0	3486223.5	2497119.3	989104.1	12962811.4	6307865.2	6654946.2
18.10250	4483562.9	1216217.6	3267345.3	4840425.3	1291911.1	3548514.1	3481505.9	2495820.4	985685.5	12963162.3	6308074.9	6655087.5
18.10750	4472287.2	1214419.9	3257867.3	4829421.6	1290077.1	3539344.5	3475959.6	2494306.1	981653.5	12963484.1	6308266.6	6655217.5
18.11250	4455521.0	1211866.1	3243655.0	4812858.0	1287487.0	3525371.1	3467427.7	2491979.1	975448.6	12963753.2	6308418.7	6655334.5
18.11750	4438975.0	1208952.4	3230022.6	4796434.7	1284536.9	3511897.8	3458785.8	2489539.6	969246.2	12964031.3	6308580.9	6655450.4
18.12250	4429492.1	1205754.4	3223737.7	4786836.1	1281302.6	3505533.5	3453408.9	2487958.7	965450.2	12964884.1	6309065.6	6655818.4
18.12750	4426731.8	1205150.0	3221581.9	4784063.7	1280661.9	3503401.8	3449292.1	2486701.0	962591.1	12965984.1	6309697.9	6656286.3
18.13250	4428252.7	1205669.9	3222582.8	4785653.3	1281145.5	3504507.8	3445737.6	2485812.6	959925.0	12967031.5	6310289.2	6656742.3
18.13750	4429834.5	1205545.7	3224288.9	4787321.6	1280984.9	3506336.7	3443846.4	2486053.8	957792.6	12967966.7	6310810.7	6657156.0
18.14250	4430689.7	1204737.4	3225952.3	4787955.0	1280140.4	3507814.7	3442426.7	2486322.6	956104.2	12968888.7	6311318.4	6657570.4
18.14750	4430258.6	1203810.3	3226448.4	4786725.9	1279006.7	3507719.2	3441170.3	2485499.4	955670.8	12969823.7	6311856.8	6657966.9
18.15250	4427999.8	1201518.1	3226481.7	4783598.7	1276451.7	3507147.0	3440685.5	2484202.6	956483.0	12970766.3	6312407.3	6658359.0
18.15750	4425170.4	1199181.0	3225989.4	4779847.6	1273851.7	3505995.9	3439875.9	2482678.9	957197.0	12971695.7	6312937.1	6658758.6
18.16250	4422427.5	1196645.6	3225781.9	4776156.3	1271053.6	3505102.8	3437843.4	2480327.4	957516.0	12972598.4	6313405.4	6659192.9
18.16750	4422938.8	1195461.2	3227477.6	4775718.9	1269606.3	3506112.7	3435790.2	2477976.8	957813.4	12973505.1	6313871.5	6659633.7
18.17250	4422653.5	1194400.8	3228252.7	4774485.3	1268283.1	3506202.2	3434252.7	2475894.1	958358.6	12974794.4	6314501.6	6660292.8
18.17750	4421754.7	1192674.8	3229079.9	4772686.1	1266342.3	3506343.8	3432938.3	2473905.1	959033.2	12976243.9	6315195.5	6661048.4
18.18250	4417673.6	1190505.7	3227167.9	4767810.2	1263994.4	3503815.8	3432895.0	2472570.2	960324.8	12977698.2	6315899.2	6661798.9
18.18750	4413656.0	1188516.7	3225139.3	4763125.5	1261952.1	3501173.4	3435412.7	2473177.5	962235.1	12979169.0	6316630.0	6662539.0
18.19250	4410326.8	1186579.7	3223747.1	4759156.4	1260002.1	3499154.2	3438038.5	2473800.5	964237.9	12980643.8	6317357.6	6663286.2
18.19750	4403106.1	1184044.6	3219061.5	4750978.5	1257350.5	3493628.0	3438382.2	2472950.1	965432.1	12982152.5	6318068.0	6664084.5
18.20250	4392957.7	1180216.9	3212740.8	4739772.2	1253361.5	3486410.7	3437619.8	2471441.6	966178.2	12983672.2	6318765.4	6664906.7
18.20750	4382434.4	1175661.2	3206773.2	4728250.2	1248663.5	3479586.7	3437274.4	2469861.9	967412.5	12985212.9	6319477.7	6665735.2
18.21250	4375101.8	1172928.1	3202173.8	4719989.6	1245778.8	3474210.8	3437304.1	2468192.4	969111.7	12986809.5	6320232.3	6666577.2
18.21750	4373116.1	1171900.3	3201215.8	4717139.6	1244598.3	3472541.3	3437556.9	2466521.6	971035.3	12988414.8	6320992.3	6667422.5
18.22250	4374795.4	1170857.4	3203938.0	4717985.6	1243402.8	3474582.8	3437745.8	2465125.0	972620.8	12990275.6	6321833.1	6668442.5
18.22750	4376900.9	1170053.3	3206847.5	4719459.9	1242446.0	3477013.9	3437894.6	2463825.9	974068.7	12992238.6	6322705.3	6669533.3
18.23250	4379597.2	1169822.4	3209774.8	4721397.8	1242062.4	3479335.4	3438299.0	2462559.0	975740.1	12994218.6	6323585.0	6670633.5
18.23750	4380086.0	1167891.1	3212194.9	4721154.0	1239978.4	3481175.6	3439571.3	2461384.5	978186.7	12996251.1	6324484.7	6671766.4
18.24250	4378241.3	1166048.7	3212192.6	4718580.1	1237986.5	3480593.6	3440989.3	2460216.9	980772.4	12998286.4	6325386.7	6672899.7
18.24750	4377826.1	1164887.6	3212938.5	4717450.8	1236693.8	3480756.9	3443956.8	2459166.4	984790.4	13000255.6	6326287.7	6673967.9
18.25250	4377111.8	1163745.1	3213366.7	4716022.3	1235419.9	3480602.4	3447458.2	2458158.3	989299.9	13002200.9	6327190.9	6675009.9
18.25750	4376558.7	1162091.6	3214467.1	4714755.3	1233634.4	3481120.9	3450524.0	2457151.7	993372.3	13004185.5	6328105.6	6676080.0
18.26250	4379011.1	1160432.9	3218578.1	4716512.1	1231842.3	3484669.8	3452502.7	2456147.5	996355.2	13006333.0	6329065.6	6677267.5
18.26750	4380699.7	1158769.5	3221930.1	4717523.0	1230045.5	3487477.5	3454403.2	2455143.7	999259.5	13008514.6	6330044.2	6678470.4
18.27250	4379750.9	1157096.0	3222654.9	4715896.8	1228239.0	3487657.8	3455903.0	2454172.5	1001730.6	13011181.7	6331310.7	6679871.0
18.27750	4374728.9	1155325.4	3219403.5	4710341.4	1226338.4	3484003.0	3457244.9	2453214.5	1004030.4	13014064.5	6332699.9	6681364.5
18.28250	4369431.8	1153283.8	3216148.0	4704647.0	1224166.9	3480480.1	3457633.0	2452269.9	1005363.1	13017012.8	6334117.5	6682895.3
18.28750	4363317.7	1151275.3	3212042.4	4698114.0	1222028.5	3476085.5	3456549.6	2451373.5	1005176.1	13020048.3	6335540.6	6684507.7
18.29250	4356784.1	1149288.4	3207495.7	4691193.9	1219911.6	3471282.3	3455119.9	2450479.3	1004640.7	13023105.9	6336977.0	6686128.8
18.29750	4350046.0	1147231.3	3202814.6	4684066.4	1217725.5	3466340.9	3453476.9	2449704.6	1003772.3	13026279.7	6338481.7	6687798.0
18.30250	4343322.2	1145210.6	3198111.6	4676953.5	1215575.8	3461377.7	3451745.1	2448969.5	1002775.5	13029510.9	6340018.1	6689492.7
18.30750	4336333.1	1143191.0	3193142.2	4669637.9	1213427.1	3456210.8	3449983.8	2448198.9	1001784.9	13032907.8	6341642.5	6691265.3
18.31250	4327465.5	1141178.5	3186287.0	4660443.9	1211285.6	3449158.3	3448124.6	2447306.6	1000818.1	13036810.4	6343536.1	6693274.3
18.31750	4318632.7	1139187.2	3179445.5	4651285.2	1209165.2	3442120.0	3446261.0	2446412.6	999848.4	13040738.2	6345444.4	6695293.7
18.32250	4311162.5	1137205.9	3173956.6	4643470.0	1207054.9	3436415.1	3444350.0	2445486.9	998863.1	13044994.3	6347469.9	6697524.4
18.32750	4303786.5	1135199.0	3168587.5	4635657.1	1204918.9	3430738.1	3442410.4	2444548.4	997862.0	13049402.9	6349561.4	6699841.5
18.33250	4297789.0	1132892.4	3164896.5	4629074.8	1202483.3	3426591.4	3440506.7	2443641.7	996865.0	13053788.5	6351648.5	6702140.0
18.33750	4294890.4	1130513.0	3164377.4	4625654.8	1199974.9	3425679.9	3438727.0	2442846.1	995880.9	13058085.2	6353724.0	6704361.2
18.34250	4292068.6	1127980.1	3164088.6	4622403.4	1197312.9	3425090.5	3436906.3	2442051.0	994855.3	13062388.1	6355800.6	6706587.5
18.34750	4288911.9	1125172.3	3163739.6	4619371.2	1194376.1	3424995.0	3434960.3	2441253.4	993706.9	13066856.7	6357947.6	6708909.1
18.35250	4286003.7	1122271.3	3163732.4	4616581.6	1191346.1	3425235.5	3432934.0	2440454.0	992480.0	13071403.8	6360126.5	6711277.3
18.35750	4283063.3	1119339.0	3163724.3	4613744.5	1188284.7	3425459.8	3430728.5	2439513.0	991215.5	13076378.8	6362504.6	6713874.2
18.36250	4280474.7	1116607.8	3163866.9	4611242.0	1185424.5	3425817.5	3427919.6	2438112.1	989807.4	13082593.4	6365445.4	6717147.9
18.36750	4276046.9	1113733.1	3162313.9	4606847.9	1182420.7	3424427.2	3425114.5	2436686.8	988427.7	13088846.8	6368408.4	6720438.4
18.37250	4272928.9	1111733.9	3161195.0	4603729.5	1180292.5	3423437.0	3421789.4	2434730.5	987058.9	13095039.1	6371378.1	6723661.1
18.37750	4269041.6	1109883.3	3159158.3	4599847.9	1178312.8	3421535.1	3418256.5	2432561.6	985695.0	13101213.8	6374356.8	6726857.1
18.38250	4261199.5	1108029.4	3153170.1	4591985.7	1176329.9	3415655.7	3414709.4	2430381.5	984327.9	13107448.4	6377346.1	6730102.3
18.38750	4248653.5	1106522.6	3142130.8	4579417.7	1174694.1	3404723.6	3411138.0	2428190.6	982947.4	13113918.8	6380390.4	6733528.4
18.39250	4236243.7	1105056.0	3131187.7	4566972.0	1173098.4	3393873.6	3407571.0	2426003.6	981567.4	13120392.6	6383434.5	6736958.0
18.39750	4224087.3	1103512.7	3120574.6	4554761.7	1171414.9	3383346.7	3404244.6	2424082.7	980162.0	13127465.3	6386787.7	6740677.6
18.40250	4213321.6	1101867.9	3111453.7	4543958.2	1169628.5	3374329.7	3401027.6	2422273.8	978753.7	13134776.1	6390260.0	6744516.1
18.40750	4203372.6	1099405.0	3103967.5	4533971.4	1167023.8	3366947.6	3398015.2	2420629.5	977385.8	13142261.9	6393840.6	6748421.4
18.41250	4192775.6	1095958.1	3096817.4	4523207.2	1163436.8	3359770.4	3395672.1	2419512.4	976159.7	13150177.6	6397722.5	6752455.1
18.41750	4181633.2	1092034.1	3089599.1	4511396.3	1159373.5	3352022.8	3393515.8	2418405.4	975110.5	13158125.3	6401616.9	6756508.4
18.42250	4172316.2	1088629.6	3083686.6	4501441.7	1155840.6	3345601.1	3391505.9	2417299.0	974206.9	13166423.0	6405769.8	6760653.2
18.42750	4164627.2	1085592.3	3079034.9	4493162.0	1152679.6	3340482.4	3389538.5	2416191.4	973347.1	13174856.5	6410019.9	6764836.6
18.43250	4160176.5	1082575.9	3077600.7	4488138.6	1149539.5	3338599.1	3387583.9	2415076.5	972507.4	13183245.1	6414243.2	6769002.0
18.43750	4157206.4	1079586.3	3077620.1	4484595.9	1146426.2	3338169.7	3385611.1	2413938.0	971673.1	13191407.2	6418352.1	6773055.1
18.44250	4153950.0	1076597.7	3077352.3	4480766.6	1143313.9	3337452.7	3383641.2	2412802.3	970839.0	13199594.1	6422464.2	6777129.9
18.44750	4151293.8	1073861.7	3077432.1	4477537.9	1140454.2	3337083.7	3381726.9	2411710.7	970016.1	13208303.1	6426888.8	6781414.3
18.45250	4148899.8	1072497.1	3076402.8	4474572.5	1138965.4	3335607.1	3379831.5	2410635.8	969195.7	13217238.9	6431440.5	6785798.5
18.45750	4148820.1	1073552.5	3075267.6	4473925.9	1139895.7	3334030.2	3377966.6	2409584.6	968382.0	13226225.2	6436016.5	6790208.7
18.46250	4148410.0	1074233.5	3074176.5	4472951.8	1140451.5	3332500.3	3376179.2	2408591.0	967588.2	13235339.8	6440659.8	6794680.0
18.46750	4146670.9	1073707.8	3072963.1	4470646.4	1139800.7	3330845.8	3374388.0	2407594.7	966793.4	13244472.9	6445310.9	6799161.9
18.47250	4144661.0	1073114.0	3071547.0	4468057.6	1139081.7	3328975.9	3372234.9	2406385.2	965849.7	13253722.9	6449944.5	6803778.3
18.47750	4140885.0	1072183.2	3068701.8	4463683.8	1138025.7	3325658.1	3369928.8	2405087.9	964840.9	13263025.5	6454575.9	6808449.5
18.48250	4137034.2	1070962.2	3066071.9	4459243.0	1136679.4	3322563.6	3367577.0	2403774.4	963802.6	13272410.1	6459256.3	6813153.8
18.48750	4132536.2	1069298.2	3063238.1	4454157.1	1134883.6	3319273.5	3365093.1	2402404.9	962688.2	13282068.2	6464115.4	6817952.7
18.49250	4128106.6	1067582.2	3060524.4	4449155.8	1133035.8	3316120.0	3362592.0	2401035.7	961556.3	13291733.3	6468977.7	6822755.6
18.49750	4123331.0	1065680.3	3057650.7	4443798.3	1131002.0	3312796.3	3360138.6	2399729.8	960408.8	13301671.4	6473956.8	6827714.6
18.50250	4118561.1	1063789.3	3054771.8	4438456.1	1128977.0	3309479.1	3357739.3	2398449.9	959289.4	13311720.6	6478986.3	6832734.3
18.50750	4113742.3	1061770.7	3051971.6	4433046.5	1126808.4	3306238.2	3355337.4	2397193.9	958143.5	13321934.0	6484095.6	6837838.4
18.51250	4108049.2	1059743.3	3048306.0	4426498.9	1124408.6	3302090.3	3353013.4	2396017.8	956995.6	13332723.0	6489472.9	6843250.1
18.51750	4102820.9	1057742.1	3045078.8	4420192.2	1121820.1	3298372.1	3350692.7	2394843.6	955849.1	13343429.0	6494813.1	6848615.9
18.52250	4097487.6	1055819.3	3041668.2	4413773.7	1119309.7	3294464.0	3348489.8	2393688.9	954800.9	13350315.0	6498330.8	6851984.2
18.52750	4092272.7	1053909.4	3038363.3	4407505.8	1116812.4	3290693.3	3346338.4	2392542.3	953796.1	13355577.9	6501062.2	6854515.7
18.53250	4087042.5	1052124.7	3034917.9	4401225.1	1114440.1	3286785.0	3344284.5	2391396.6	952887.9	13360149.1	6503449.2	6856699.9
18.53750	4081969.8	1050407.1	3031562.6	4395097.9	1112135.2	3282962.7	3342447.3	2390255.0	952192.3	13362595.6	6504740.6	6857855.0
18.54250	4077121.4	1048689.5	3028431.9	4389187.2	1109830.0	3279357.1	3340605.6	2389113.0	951492.6	13364986.6	6506011.5	6858975.1
18.54750	4071985.3	1046972.7	3025012.6	4382989.0	1107525.9	3275463.1	3338747.0	2387983.4	950763.6	13367498.7	6507392.1	6860106.6
18.55250	4066840.3	1045145.3	3021695.0	4376970.9	1105292.2	3271678.6	3336885.6	2386859.5	950026.1	13370070.9	6508823.3	6861247.7
18.55750	4061602.4	1043121.2	3018481.2	4371377.4	1103366.0	3268011.5	3334924.2	2385732.7	949191.5	13372896.5	6510383.1	6862513.4
18.56250	4056168.3	1040981.1	3015187.2	4365587.8	1101323.6	3264264.2	3332674.8	2384597.1	948077.7	13376445.1	6512300.7	6864144.4
18.56750	4050659.3	1038765.9	3011893.4	4359729.0	1099206.2	3260522.9	3330412.9	2383461.0	946952.0	13380029.0	6514232.6	6865796.4
18.57250	4044530.9	1036529.4	3008001.5	4353258.8	1097067.5	3256191.3	3328168.2	2382340.1	945828.1	13383566.8	6516117.9	6867448.9
18.57750	4037845.8	1034261.6	3003584.3	4346267.8	1094897.5	3251370.4	3325923.7	2381224.5	944699.2	13387088.1	6517985.6	6869102.5
18.58250	4031704.1	1032536.7	2999167.4	4339767.4	1093270.4	3246497.0	3323681.2	2380117.0	943564.2	13390645.3	6519888.0	6870757.3
18.58750	4026250.4	1030905.6	2995344.9	4333981.2	1091737.0	3242244.2	3321471.5	2379036.1	942435.4	13394337.4	6521923.8	6872413.5
18.59250	4020723.8	1029256.4	2991467.4	4328082.7	1090137.8	3237944.9	3319261.9	2377955.4	941306.5	13398032.6	6523959.7	6874072.9
18.59750	4015383.5	1027596.5	2987787.0	4322236.1	1088448.5	3233787.7	3316957.5	2376777.1	940180.4	13401651.6	6525907.7	6875743.9
18.60250	4009711.0	1026166.5	2983544.5	4316047.7	1086989.0	3229058.7	3314615.9	2375560.4	939055.5	13405247.4	6527822.6	6877424.8
18.60750	4004703.6	1024724.2	2979979.4	4310526.2	1085517.2	3225009.0	3312215.6	2374300.0	937915.6	13409131.4	6529882.8	6879248.6
18.61250	3999547.3	1023036.3	2976511.0	4304862.1	1083799.8	3221062.3	3309615.2	2372887.4	936727.8	13413939.9	6532418.7	6881521.2
18.61750	3994317.0	1021218.6	2973098.4	4299085.3	1081894.4	3217190.8	3307014.8	2371474.9	935539.8	13418772.1	6534961.2	6883810.9
18.62250	3988831.2	1019080.3	2969750.9	4293045.2	1079665.3	3213379.9	3304297.2	2370011.5	934285.7	13423599.7	6537483.7	6886116.0
18.62750	3982925.5	1016915.1	2966010.4	4286622.7	1077409.1	3209213.6	3301541.1	2368529.7	933011.4	13428424.9	6539997.3	6888427.6
18.63250	3977479.6	1014669.0	2962810.6	4280623.1	1075070.4	3205552.7	3298803.1	2367056.3	931746.8	13433217.1	6542480.5	6890736.5
18.63750	3970886.5	1012464.6	2958422.0	4273488.3	1072773.8	3200714.4	3296102.8	2365611.1	930491.7	13437883.9	6544857.4	6893026.4
18.64250	3965315.2	1010230.2	2955085.0	4267398.2	1070459.4	3196938.8	3293394.5	2364166.3	929228.2	13442547.4	6547233.9	6895313.6
18.64750	3958388.5	1007992.2	2950396.3	4259957.1	1068131.3	3191825.8	3290666.8	2362687.3	927979.5	13447295.4	6549688.7	6897606.7
18.65250	3952147.1	1005762.2	2946385.0	4253191.8	1065788.2	3187403.6	3287933.1	2361195.5	926737.6	13452071.5	6552172.5	6899899.0
18.65750	3945576.5	1003587.1	2941989.4	4246072.6	1063500.8	3182571.9	3285190.6	2359686.2	925504.4	13457002.8	6554712.6	6902290.2
18.66250	3938921.0	1001420.8	2937500.2	4238840.8	1061222.6	3177618.2	3282415.8	2358117.5	924298.4	13462462.0	6557440.1	6905021.9
18.66750	3932447.5	999265.0	2933182.5	4231774.2	1058954.8	3172819.4	3279641.3	2356548.3	923093.0	13467926.4	6560171.5	6907754.9
18.67250	3925720.5	997114.8	2928605.7	4224452.9	1056694.5	3167758.5	3277002.3	2354970.5	922031.8	13473497.4	6562961.1	6910536.3
18.67750	3919200.3	994941.7	2924258.5	4217348.3	1054414.5	3162933.8	3274420.3	2353388.6	921031.7	13479119.4	6565779.0	6913340.4
18.68250	3912553.9	992770.1	2919783.8	4210101.5	1052136.2	3157965.4	3271895.5	2351863.7	920031.8	13484767.9	6568597.1	6916170.7
18.68750	3906466.7	990589.8	2915876.9	4203330.9	1049849.2	3153481.8	3269565.6	2350533.9	919031.8	13490483.4	6571413.4	6919070.1
18.69250	3900678.9	988494.8	2912184.1	4196873.7	1047647.5	3149226.2	3267234.4	2349203.0	918031.4	13496206.7	6574231.4	6921975.2
18.69750	3894784.9	986511.5	2908273.4	4190345.8	1045522.5	3144823.3	3264988.5	2347963.9	917024.6	13501960.7	6577032.3	6924928.4
18.70250	3889169.0	984494.6	2904674.4	4184196.8	1043397.1	3140799.7	3262773.0	2346761.2	916011.9	13507739.8	6579840.3	6927899.5
18.70750	3883462.3	982480.4	2900981.9	4177961.2	1041277.1	3136684.0	3260570.8	2345572.8	914998.1	13513668.6	6582726.8	6930941.7
18.71250	3876958.1	980351.1	2896607.0	4170922.2	1039039.6	3131882.6	3258400.1	2344420.8	913979.3	13520096.6	6585852.0	6934244.6
18.71750	3868932.2	976981.9	2891950.3	4162353.3	1035562.2	3126791.1	3256231.5	2343271.0	912960.4	13526554.3	6588983.4	6937570.9
18.72250	3860211.3	973600.4	2886610.9	4153070.3	1032072.5	3120997.8	3254068.2	2342123.3	911945.0	13532877.6	6591949.9	6940927.7
18.72750	3850121.4	970225.3	2879896.1	4142418.6	1028589.2	3113829.4	3251908.1	2340976.1	910932.0	13539143.7	6594840.3	6944303.3
18.73250	3840298.1	966868.8	2873429.3	4132033.7	1025124.5	3106909.1	3249761.4	2339837.1	909924.3	13545494.3	6597782.0	6947712.4
18.73750	3828476.4	963515.1	2864961.3	4119650.1	1021662.6	3097987.5	3247648.0	2338724.5	908923.5	13552152.6	6600890.8	6951261.8
18.74250	3819486.4	960089.0	2859397.4	4110099.1	1018126.5	3091972.6	3245532.2	2337612.4	907919.8	13558797.0	6603998.9	6954798.2
18.74750	3813355.1	957685.3	2855669.8	4103379.4	1015576.6	3087802.9	3243311.3	2336493.5	906817.8	13565356.9	6607085.7	6958271.1
18.75250	3808373.3	955847.3	2852526.0	4097813.3	1013594.6	3084218.7	3241053.5	2335372.6	905680.9	13571852.2	6610156.2	6961696.0
18.75750	3804424.9	953852.4	2850572.6	4093306.8	1011469.6	3081837.2	3238749.6	2334256.7	904492.9	13578386.0	6613247.4	6965138.6
18.76250	3801871.1	951858.2	2850012.9	4090178.6	1009345.3	3080833.3	3236288.9	2333148.2	903140.7	13585007.6	6616369.2	6968638.4
18.76750	3799794.8	949863.7	2849931.0	4087521.0	1007220.6	3080300.4	3233843.5	2332041.8	901801.7	13591638.1	6619498.5	6972139.6
18.77250	3797700.5	947875.7	2849824.8	4084833.0	1005102.4	3079730.5	3231302.7	2330935.5	900367.3	13598402.0	6622712.1	6975689.9
18.77750	3796689.5	945940.6	2850748.9	4083235.8	1003037.2	3080198.6	3228729.3	2329830.7	898898.6	13605220.7	6625960.7	6979260.0
18.78250	3796267.0	944027.5	2852239.5	4082252.6	1000993.9	3081258.7	3225854.8	2328730.8	897124.0	13612025.4	6629207.8	6982817.6
18.78750	3796151.1	942136.7	2854014.4	4081575.9	998973.0	3082603.0	3222232.9	2327644.2	894588.7	13618737.6	6632433.8	6986303.8
18.79250	3798876.4	940234.7	2858641.7	4083729.8	996940.7	3086789.1	3218526.7	2326557.1	891969.7	13625457.2	6635662.1	6989795.1
18.79750	3797912.7	938385.1	2859527.5	4082191.5	994961.0	3087230.5	3212613.0	2325507.5	887105.5	13632129.9	6638855.8	6993274.1
18.80250	3796233.9	936321.9	2859912.0	4079938.7	992767.7	3087171.0	3205929.4	2324472.3	881457.1	13638786.4	6642038.6	6996747.8
18.80750	3793535.9	933881.6	2859654.3	4076663.9	990197.2	3086466.7	3199228.1	2323455.8	875772.3	13645440.7	6645237.7	7000202.9
18.81250	3787803.7	931534.7	2856269.0	4070361.5	987720.2	3082641.3	3192447.0	2322481.7	869965.4	13652112.0	6648487.9	7003624.1
18.81750	3782017.5	928939.3	2853078.2	4064002.7	984994.6	3079008.2	3185647.4	2321514.1	864133.3	13658706.6	6651705.6	7007001.0
18.82250	3775997.8	926015.1	2849982.7	4057384.7	981940.2	3075444.5	3177318.7	2320557.8	856760.9	13660442.4	6652518.9	7007923.5
18.82750	3769949.8	923132.4	2846817.3	4050764.2	978927.4	3071836.8	3168343.1	2319603.3	848739.8	13660181.4	6652363.9	7007817.5
18.83250	3763777.1	920237.0	2843540.1	4043101.0	975901.8	3067199.1	3159459.8	2318619.9	840839.9	13659225.6	6651868.4	7007357.2
18.83750	3757703.4	917818.0	2839885.4	4035498.5	973352.6	3062145.9	3151104.1	2317530.4	833573.8	13656258.0	6650420.2	7005837.8
18.84250	3751198.3	915259.7	2835938.6	4027464.1	970664.1	3056799.9	3142465.7	2316439.0	826026.7	13653209.8	6648920.3	7004289.5
18.84750	3744643.2	912820.2	2831823.0	4019382.7	968094.5	3051288.2	3132662.1	2315238.8	817423.2	13650076.7	6647357.7	7002718.9
18.85250	3738041.8	910311.6	2827730.3	4011252.7	965455.7	3045797.0	3121960.3	2313991.3	807969.0	13646907.7	6645770.1	7001137.6
18.85750	3731379.0	907724.2	2823654.9	4003060.6	962738.1	3040322.5	3111496.3	2312718.3	798778.0	13643726.6	6644170.9	6999555.7
18.86250	3724696.6	905108.4	2819588.2	3994811.5	959992.2	3034819.3	3101626.2	2311374.4	790251.8	13640496.4	6642531.1	6997965.3
18.86750	3717971.5	902612.0	2815359.5	3986586.6	957365.6	3029221.0	3091868.0	2310037.2	781830.8	13637265.1	6640889.8	6996375.3
18.87250	3711190.1	900056.8	2811133.3	3978799.0	954680.3	3024118.7	3082293.3	2308738.0	773555.3	13634117.1	6639280.8	6994836.3
18.87750	3704409.6	897448.0	2806961.6	3971037.6	951941.3	3019096.3	3073220.8	2307469.9	765750.9	13630999.9	6637681.6	6993318.3
18.88250	3697690.7	894805.1	2802885.6	3963338.2	949168.3	3014169.9	3065106.7	2306205.1	758901.6	13627873.9	6636072.9	6991801.0
18.88750	3691941.2	893031.2	2798910.0	3957458.3	947264.2	3010194.1	3060494.3	2304947.6	755546.6	13624718.5	6634429.6	6990288.8
18.89250	3686488.3	891634.5	2794853.8	3952019.7	945737.4	3006282.3	3056100.2	2303690.0	752410.2	13621564.3	6632787.4	6988776.9
18.89750	3681289.0	890357.7	2790931.3	3946971.2	944330.3	3002640.8	3052277.5	2301783.2	750494.3	13618468.9	6631218.8	6987250.1
18.90250	3676223.4	889119.9	2787103.5	3942057.7	942962.4	2999095.3	3048657.6	2299620.1	749037.6	13615397.3	6629678.8	6985718.5
18.90750	3670946.2	887517.8	2783428.4	3936712.5	941230.1	2995482.4	3045484.3	2297593.5	747890.8	13612321.0	6628148.6	6984172.5
18.91250	3664909.0	885177.7	2779731.3	3930408.2	938759.9	2991648.4	3043715.9	2296057.9	747658.0	13609232.5	6626655.9	6982576.7
18.91750	3659041.6	882879.8	2776161.8	3924445.8	936331.8	2988114.1	3041982.0	2294523.1	747458.9	13606142.9	6625162.4	6980980.5
18.92250	3653346.8	880242.9	2773103.9	3918742.5	933564.8	2985177.7	3041970.0	2293512.5	748457.5	13602948.7	6623536.7	6979412.0
18.92750	3647964.5	877762.7	2770201.8	3913098.0	930954.4	2982143.6	3042644.0	2292709.7	749934.3	13599713.2	6621859.0	6977854.1
18.93250	3643307.6	875335.0	2767972.6	3908088.9	928396.5	2979692.3	3042868.1	2291916.3	750951.8	13596488.5	6620189.5	6976299.0
18.93750	3638057.4	872974.5	2765082.9	3902377.7	925905.9	2976471.7	3041506.0	2291156.2	750349.7	13593307.8	6618552.0	6974755.9
18.94250	3632622.7	870537.5	2762085.2	3896639.7	923338.7	2973301.0	3040142.6	2290396.1	749746.5	13590126.0	6616913.7	6973212.3
18.94750	3627426.2	868365.4	2759060.8	3891075.5	921036.5	2970039.1	3038676.7	2289416.4	749260.3	13586934.0	6615259.8	6971674.3
18.95250	3621544.1	865680.6	2755863.5	3884655.9	918221.5	2966434.4	3037198.5	2288350.4	748848.1	13583736.5	6613598.8	6970137.7
18.95750	3614345.7	862839.9	2751505.8	3877256.8	915250.6	2962006.2	3035374.4	2287105.0	748269.4	13580522.5	6611930.4	6968592.1
18.96250	3605712.7	858385.6	2747327.0	3867919.9	910666.2	2957253.6	3032333.1	2285220.6	747112.5	13577245.5	6610233.1	6967012.4
18.96750	3597057.6	854411.6	2742645.9	3858757.6	906562.0	2952195.5	3029343.3	2283335.4	746007.9	13573967.2	6608535.1	6965432.1
18.97250	3588852.8	850251.6	2738601.2	3849981.7	902271.9	2947709.8	3026233.2	2281432.1	744801.1	13570689.3	6606844.2	6963845.2
18.97750	3580765.0	846305.6	2734459.5	3841452.4	898195.6	2943256.7	3023074.6	2279521.0	743553.6	13567409.8	6605154.9	6962254.9
18.98250	3573206.0	842504.3	2730701.7	3833235.1	894264.2	2938970.8	3020922.4	2277944.8	742977.6	13564120.6	6603453.0	6960667.6
18.98750	3567348.9	839013.0	2728335.9	3827027.1	890642.8	2936384.3	3022348.6	2277549.4	744799.1	13560791.6	6601703.3	6959088.3
18.99250	3562395.6	836569.2	2725826.4	3821556.6	888068.8	2933487.9	3023776.5	2277156.0	746620.5	13557464.0	6599954.2	6957509.8
18.99750	3558003.7	834627.2	2723376.4	3816856.5	885996.6	2930859.9	3025348.8	2276908.0	748440.8	13554168.9	6598236.1	6955932.8
19.00250	3554124.4	833150.5	2720973.9	3812288.8	884389.8	2927899.0	3026949.4	2276716.9	750232.5	13550888.6	6596531.2	6954357.4
19.00750	3550341.3	831758.1	2718583.2	3808208.2	882867.2	2925341.0	3028794.6	2276431.6	752363.0	13547541.9	6594792.6	6952749.2
19.01250	3545424.9	829318.2	2716106.7	3802907.4	880297.1	2922610.2	3031556.9	2275819.3	755737.6	13543961.9	6592937.9	6951023.9
19.01750	3538985.2	826497.8	2712487.5	3795887.4	877346.6	2918540.8	3034272.2	2275200.0	759072.3	13540382.0	6591082.7	6949299.3
19.02250	3531053.6	823563.4	2707490.2	3787341.7	874282.0	2913059.7	3033104.1	2273299.8	759804.4	13536718.4	6589212.4	6947506.0
19.02750	3522778.7	820144.7	2702634.0	3778459.9	870733.2	2907726.7	3030536.3	2270903.8	759632.6	13533023.0	6587336.2	6945686.9
19.03250	3514751.5	816740.6	2698010.9	3769825.4	867198.9	2902626.5	3028232.7	2268603.5	759629.2	13529323.4	6585456.0	6943867.4
19.03750	3507183.5	813410.0	2693773.5	3761650.5	863738.1	2897912.3	3026999.2	2266649.5	760349.7	13525612.5	6583562.3	6942050.2
19.04250	3500130.6	810192.2	2689938.4	3753989.4	860390.2	2893599.2	3025781.7	2264698.6	761083.1	13521901.5	6581669.0	6940232.5
19.04750	3493650.1	807106.6	2686543.5	3746935.6	857174.4	2889761.2	3025211.4	2263387.5	761823.9	13518203.4	6579787.9	6938415.5
19.05250	3488083.7	804735.1	2683348.6	3740803.7	854672.8	2886130.9	3024987.5	2262330.1	762657.4	13514510.2	6577911.6	6936598.6
19.05750	3482867.8	802854.8	2680013.0	3735033.7	852662.3	2882371.4	3024472.8	2261275.0	763197.8	13510810.9	6576030.8	6934780.1
19.06250	3477347.0	800695.2	2676651.8	3728949.5	850372.5	2878577.0	3023082.2	2260222.8	762859.4	13507095.8	6574136.4	6932959.4
19.06750	3471818.9	798567.4	2673251.5	3722858.9	848114.6	2874744.4	3021692.3	2259170.2	762522.1	13503378.6	6572241.1	6931137.6
19.07250	3466085.1	796339.7	2669745.4	3716574.1	845756.7	2870817.4	3021320.2	2258102.0	763218.2	13499640.8	6570336.2	6929304.6
19.07750	3460149.2	794013.7	2666135.5	3710226.7	843300.5	2866926.2	3021344.1	2257025.9	764318.2	13495891.7	6568426.1	6927465.7
19.08250	3454877.8	792082.7	2662795.2	3704367.5	841239.3	2863128.2	3021013.6	2255933.9	765079.7	13491928.3	6566396.4	6925531.9
19.08750	3449732.7	790227.9	2659504.8	3698634.6	839254.5	2859380.1	3019423.0	2254788.9	764634.1	13487297.5	6564012.0	6923285.6
19.09250	3444761.9	788357.6	2656404.3	3693075.7	837253.9	2855821.8	3017837.1	2253642.9	764194.2	13482638.6	6561610.4	6921028.2
19.09750	3440516.4	787218.9	2653297.5	3688251.4	835985.1	2852266.3	3016747.9	2252476.2	764271.8	13477561.3	6559015.6	6918545.6
19.10250	3436158.2	785965.5	2650192.7	3683318.2	834601.5	2848716.7	3015816.8	2251300.1	764516.7	13472306.2	6556339.0	6915967.2
19.10750	3432757.0	785690.7	2647066.3	3679342.3	834196.6	2845145.6	3014722.5	2250136.2	764586.3	13466950.8	6553612.4	6913338.4
19.11250	3430314.6	786238.8	2644075.8	3676324.9	834614.5	2841710.3	3013049.8	2249011.5	764038.3	13461230.1	6550697.6	6910532.5
19.11750	3427751.1	786788.0	2640963.1	3673194.7	835033.6	2838161.1	3011409.4	2247887.7	763521.7	13455161.0	6547562.3	6907598.7
19.12250	3424661.0	786985.1	2637675.9	3669542.4	835100.4	2834442.0	3009828.7	2246802.5	763026.1	13438218.8	6539338.7	6898880.2
19.12750	3421393.5	787030.7	2634362.8	3665709.8	835015.9	2830693.9	3008136.3	2245733.5	762402.8	13416521.7	6528672.5	6887849.1
19.13250	3417432.5	786419.8	2631012.7	3661183.7	834274.9	2826908.9	3006600.7	2244655.5	761945.2	13388224.7	6514802.4	6873422.2
19.13750	3412726.5	785086.3	2627640.3	3655861.8	832811.1	2823050.7	3005412.7	2243549.8	761862.8	13341845.7	6492097.7	6849747.9
19.14250	3408070.4	783701.1	2624369.3	3650541.5	831295.8	2819245.6	3004050.6	2242443.8	761606.8	13294421.1	6468898.2	6825522.9
19.14750	3403286.4	782291.3	2620995.1	3644864.5	829755.8	2815108.7	3002229.3	2241336.8	760892.5	13245709.9	6445090.4	6800619.5
19.15250	3397925.9	780841.5	2617084.4	3638611.5	828175.9	2810435.6	3000199.4	2240230.3	759969.1	13196463.9	6421000.2	6775463.8
19.15750	3392364.5	779353.8	2613010.6	3632173.8	826558.0	2805615.8	2998830.8	2239122.7	759708.1	13147058.9	6396839.6	6750219.3
19.16250	3386647.1	777941.4	2608705.6	3625604.9	825015.5	2800589.4	2997715.3	2238007.2	759708.1	13097264.9	6372515.0	6724749.9
19.16750	3380816.0	776443.2	2604372.8	3618926.8	823387.0	2795539.8	2996807.6	2236891.1	759916.5	13047439.1	6348176.2	6699262.9
19.17250	3374844.1	774811.1	2600032.9	3612096.6	821624.9	2790471.7	2994759.3	2235774.4	758985.0	12997631.3	6323829.1	6673802.1
19.17750	3367686.7	772377.9	2595308.7	3604080.9	819061.5	2785019.4	2992386.0	2234656.7	757729.3	12947824.7	6299476.1	6648348.6
19.18250	3360476.0	768807.1	2591668.8	3596011.6	815360.5	2780651.0	2990212.4	2233540.3	756672.0	12897917.2	6275080.4	6622836.8
19.18750	3353169.8	765144.2	2588025.6	3587847.1	811567.4	2776279.6	2988198.0	2232430.4	755767.6	12847806.7	6250614.3	6597192.4
19.19250	3345687.1	761149.3	2584537.7	3579505.7	807442.4	2772063.3	2986315.1	2231319.3	754995.8	12797621.8	6226106.3	6571515.5
19.19750	3338750.7	756766.6	2581984.1	3571711.1	802929.5	2768781.5	2984786.6	2230133.5	754653.1	12746291.3	6201063.1	6545228.2
19.20250	3331788.6	752309.3	2579479.3	3563908.8	798342.1	2765566.7	2983447.5	2228916.9	754530.6	12694442.1	6175775.9	6518666.3
19.20750	3324799.6	747775.4	2577024.2	3556081.7	793678.0	2762403.6	2981681.2	2227553.5	754127.8	12642565.9	6150464.9	6492101.0
19.21250	3318233.0	743627.8	2574605.1	3548861.3	789400.3	2759461.0	2979184.9	2225770.2	753414.7	12590614.1	6125108.3	6465505.8
19.21750	3311984.2	739872.7	2572111.6	3541967.0	785514.9	2756452.1	2976657.2	2223974.6	752682.6	12538648.5	6099746.1	6438902.4
19.22250	3305741.0	736211.4	2569529.5	3536465.8	781723.6	2754742.2	2974680.5	2222561.6	752118.8	12487009.8	6074566.8	6412443.0
19.22750	3299279.6	732418.4	2566861.2	3531067.4	777800.3	2753267.1	2972937.2	2221307.6	751629.6	12435478.1	6049447.7	6386030.4
19.23250	3292565.9	728385.0	2564180.9	3525413.5	773636.8	2751776.7	2971084.7	2220056.6	751028.1	12383847.7	6024275.1	6359572.5
19.23750	3285746.7	724217.8	2561528.9	3519327.7	769339.4	2749988.3	2968838.4	2218811.4	750027.0	12331871.6	5998912.8	6332958.7
19.24250	3278898.0	720079.5	2558818.5	3513170.1	765071.0	2748099.2	2966552.2	2217567.7	748984.4	12279863.5	5973531.6	6306331.8
19.24750	3271927.1	715802.0	2556125.2	3506384.9	760663.2	2745721.7	2964416.7	2216319.6	748097.1	12226716.3	5947628.5	6279087.8
19.25250	3264666.7	711127.4	2553539.3	3499318.0	755858.5	2743459.5	2962500.9	2215068.9	747432.0	12173100.3	5921500.9	6251599.4
19.25750	3258950.6	707911.6	2551038.9	3493798.2	752512.6	2741285.6	2960618.6	2213808.1	746810.5	12119487.3	5895362.5	6224124.7
19.26250	3252418.1	703949.9	2548468.2	3486969.0	748420.7	2738548.4	2958968.5	2212510.8	746457.7	12065897.2	5869212.8	6196684.4
19.26750	3245300.4	699513.4	2545787.0	3479428.2	743854.0	2735574.2	2957226.7	2211213.1	746013.6	12012332.1	5843071.2	6169260.9
19.27250	3238041.8	695054.7	2542987.1	3471705.0	739265.2	2732439.9	2955163.9	2209907.3	745256.7	11959011.6	5817024.3	6141987.3
19.27750	3230624.1	690529.0	2540095.2	3463819.6	734609.3	2729210.3	2952746.5	2208597.9	744148.6	11905827.3	5791039.0	6114788.4
19.28250	3223187.5	686085.3	2537102.3	3455921.8	730035.4	2725886.4	2950201.9	2207278.1	742923.7	11852515.2	5764997.5	6087517.7
19.28750	3215481.4	681489.1	2533992.4	3447757.6	725309.1	2722448.5	2947639.8	2205918.7	741721.1	11798883.9	5738822.8	6060061.1
19.29250	3207810.7	676912.7	2530898.0	3439653.2	720602.5	2719050.8	2945090.3	2204558.5	740531.8	11745206.5	5712627.1	6032579.4
19.29750	3200348.4	672620.4	2527728.0	3431767.2	716180.1	2715587.2	2942757.1	2203205.7	739551.5	11691034.5	5686155.8	6004878.6
19.30250	3192817.1	668271.9	2524545.2	3423794.3	711701.4	2712092.9	2940607.4	2201856.6	738750.8	11636643.6	5659566.0	5977077.6
19.30750	3183969.8	663923.6	2520046.2	3414475.6	707222.9	2707252.6	2938628.9	2200531.0	738097.9	11581886.1	5632805.4	5949080.8
19.31250	3173519.5	659494.5	2514025.0	3403553.0	702663.7	2700889.2	2936955.1	2199261.1	737694.0	11526015.2	5605554.0	5920461.2
19.31750	3160754.9	655964.2	2504790.7	3390314.2	699003.2	2691310.9	2935377.8	2197995.2	737382.6	11470149.7	5578303.2	5891846.5
19.32250	3147936.2	652808.5	2495127.8	3377017.7	695717.3	2681300.4	2933613.8	2196808.2	736805.6	11415224.4	5551490.7	5863733.7
19.32750	3137155.1	648849.9	2488305.2	3365758.7	691628.6	2674130.2	2931698.4	2195651.5	736046.9	11360696.2	5524872.1	5835824.1
19.33250	3130243.0	644907.3	2485335.6	3358369.4	687555.9	2670813.5	2929682.4	2194469.1	735213.3	11306049.8	5498195.1	5807854.7
19.33750	3124630.1	641089.5	2483540.6	3352279.2	683607.9	2668671.3	2927286.4	2193175.1	734111.3	11250969.3	5471312.0	5779657.3
19.34250	3119223.7	637260.0	2481963.7	3346396.2	679648.2	2666748.0	2924899.2	2191890.5	733008.7	11195850.7	5444410.4	5751440.3
19.34750	3114608.9	634181.8	2480427.1	3341302.5	676439.9	2664862.6	2922700.4	2190461.9	732238.6	11140849.6	5417582.8	5723266.8
19.35250	3111888.3	632424.1	2479464.2	3338101.9	674552.0	2663550.0	2920563.5	2188976.8	731586.7	11085864.4	5390770.6	5695093.8
19.35750	3109419.0	631344.0	2478075.0	3335140.5	673341.7	2661798.8	2918261.6	2187514.3	730747.4	11030519.2	5363776.5	5666742.7
19.36250	3106812.5	630831.6	2475980.8	3332035.3	672699.2	2659336.1	2915783.2	2186125.7	729657.5	10974032.2	5336233.8	5637798.4
19.36750	3102193.2	630290.1	2471903.1	3326915.7	672027.5	2654888.2	2913267.1	2184733.1	728533.9	10917530.3	5308678.5	5608851.8
19.37250	3096860.7	630200.2	2466660.5	3321065.0	671807.4	2649257.6	2911240.7	2183222.4	728018.3	10861648.9	5281422.0	5580226.9
19.37750	3090154.4	631248.2	2458906.1	3313828.5	672725.3	2641103.2	2909449.4	2181658.8	727790.6	10806071.5	5254314.5	5551757.0
19.38250	3081540.7	632424.6	2449116.1	3304651.3	673771.5	2630879.8	2907487.4	2180082.5	727404.9	10750467.9	5227194.5	5523273.4
19.38750	3077404.6	633395.3	2444009.3	3299845.8	674612.1	2625233.8	2904689.7	2178491.2	726198.5	10694784.2	5200051.3	5494732.9
19.39250	3074274.1	633301.8	2440972.4	3296046.2	674388.4	2621657.8	2901889.7	2176899.8	724989.8	10639102.3	5172904.0	5466198.2
19.39750	3072496.9	633161.7	2439335.2	3293599.6	674118.1	2619481.4	2898986.4	2175311.0	723675.4	10583032.1	5145554.6	5437477.6
19.40250	3070094.4	632375.1	2437719.4	3290611.5	673201.3	2617410.1	2896042.6	2173727.1	722315.5	10526832.2	5118136.7	5408695.5
19.40750	3066001.5	630330.0	2435671.5	3285944.2	671026.1	2614918.1	2893217.4	2172123.9	721093.5	10470608.6	5090713.5	5379895.1
19.41250	3060995.5	628178.7	2432816.8	3280355.1	668744.6	2611610.5	2890820.5	2170454.2	720366.3	10414425.5	5063341.1	5351084.4
19.41750	3056377.5	625980.1	2430397.4	3275120.5	666415.8	2608704.7	2888361.1	2168784.0	719577.1	10358238.4	5035970.8	5322267.6
19.42250	3051293.2	623811.2	2427482.0	3269419.9	664116.8	2605303.1	2885772.8	2167324.3	718448.6	10302716.1	5008898.8	5293817.3
19.42750	3046171.0	621731.2	2424439.9	3263681.3	661906.6	2601774.7	2883138.8	2165947.0	717191.7	10247737.1	4982003.6	5265733.5
19.43250	3041600.7	619652.8	2421948.0	3258494.4	659698.0	2598796.4	2880593.3	2164658.1	715935.3	10198890.4	4958303.3	5240587.1
19.43750	3037165.6	617589.3	2419576.3	3253368.8	657504.4	2595864.4	2878462.7	2163687.1	714775.7	10167431.0	4942901.8	5224529.2
19.44250	3033158.4	615542.3	2417616.1	3248660.1	655327.3	2593332.9	2876395.5	2162715.1	713680.4	10137806.9	4928497.4	5209309.5
19.44750	3030125.8	614293.0	2415832.8	3245011.5	653947.8	2591063.7	2874583.3	2161710.5	712872.8	10120165.8	4919821.1	5200344.7
19.45250	3027375.7	613527.3	2413848.4	3241645.1	653052.0	2588593.1	2872899.0	2160691.6	712207.4	10108009.5	4913811.9	5194197.6
19.45750	3024598.5	612737.1	2411861.4	3238251.8	652131.6	2586120.2	2871258.2	2159683.7	711574.5	10095969.9	4907886.0	5188083.9
19.46250	3021491.3	611948.4	2409543.0	3234535.0	651212.7	2583322.3	2869598.3	2158713.8	710884.4	10083910.9	4901936.4	5181974.5
19.46750	3018514.0	611161.2	2407352.7	3230955.2	650295.4	2580659.8	2867730.2	2157743.7	709986.6	10071854.1	4895991.0	5175863.1
19.47250	3015473.9	610329.1	2405144.8	3227313.4	649333.1	2577980.3	2866163.4	2156764.2	709399.2	10059839.9	4890083.3	5169756.6
19.47750	3012353.7	609287.6	2403066.1	3223595.9	648161.4	2575434.5	2864685.4	2155780.5	708904.9	10047842.2	4884193.4	5163648.8
19.48250	3009162.5	608178.1	2400984.5	3219807.6	646921.7	2572885.9	2862900.0	2154808.4	708091.6	10035838.3	4878295.2	5157543.1
19.48750	3005942.0	607048.7	2398893.4	3215993.3	645662.1	2570331.2	2861116.9	2153880.6	707236.3	10023799.0	4872365.2	5151433.9
19.49250	3002521.1	605891.4	2396629.7	3211981.3	644374.7	2567606.6	2859180.6	2152945.8	706234.8	10011743.0	4866423.6	5145319.4
19.49750	2998940.9	604496.2	2394444.7	3207832.0	642849.4	2564982.6	2857114.7	2152009.5	705105.2	9998994.7	4860139.5	5138855.2
19.50250	2994999.1	602928.7	2392070.4	3203322.9	641151.7	2562171.2	2854983.0	2151039.0	703944.0	9985945.0	4853701.0	5132244.0
19.50750	2990656.7	601499.7	2389156.9	3198503.0	639592.6	2558910.5	2852734.9	2149979.5	702755.4	9972901.7	4847263.4	5125638.3
19.51250	2987079.9	600640.4	2386439.6	3194448.8	638603.0	2555845.7	2850082.3	2148567.7	701514.6	9959879.6	4840829.4	5119050.2
19.51750	2982784.9	599749.5	2383035.4	3189670.9	637582.0	2552088.9	2847397.7	2147130.4	700267.3	9946864.1	4834399.1	5112465.0
19.52250	2977178.5	598858.7	2378319.8	3183613.0	636561.0	2547052.0	2844369.5	2145393.1	698976.4	9933891.4	4827997.4	5105894.0
19.52750	2972101.5	597947.4	2374154.1	3178245.2	635519.6	2542725.6	2841168.9	2143500.0	697668.9	9920943.4	4821611.0	5099332.5
19.53250	2966120.4	597013.0	2369107.4	3171947.3	634455.0	2537492.4	2838124.5	2141616.3	696508.1	9907988.0	4815219.7	5092768.3
19.53750	2957695.2	596066.1	2361629.1	3163219.4	633378.0	2529841.5	2835248.5	2139776.2	695472.3	9895040.6	4808834.9	5086205.7
19.54250	2947747.7	595004.0	2352743.7	3152969.1	632185.7	2520783.4	2832427.0	2137934.8	694492.3	9882071.3	4802442.2	5079629.1
19.54750	2938899.6	593935.7	2344963.9	3143768.9	630987.2	2512781.7	2829227.2	2136217.6	693009.6	9868690.9	4795858.4	5072832.5
19.55250	2929925.5	592908.2	2337017.3	3134354.0	629829.6	2504524.4	2825848.3	2134547.8	691300.6	9855124.9	4789193.9	5065931.0
19.55750	2923571.0	591665.0	2331906.0	3127556.0	628456.2	2499099.8	2822534.5	2132888.6	689645.9	9841470.8	4782482.3	5058988.6
19.56250	2920721.7	590204.2	2330517.5	3124276.6	626865.3	2497411.3	2819240.8	2131269.5	687971.3	9827549.9	4775624.3	5051925.6
19.56750	2919441.3	588671.8	2330769.5	3122603.8	625202.7	2497401.1	2815935.1	2129650.3	686284.8	9813617.8	4768760.8	5044857.1
19.57250	2919544.9	586996.4	2332548.6	3122335.0	623397.1	2498937.9	2812676.6	2127986.4	684690.1	9799739.6	4761945.6	5037794.0
19.57750	2917038.6	585385.8	2331652.8	3119437.7	621656.3	2497781.4	2809469.2	2126302.8	683166.4	9785873.5	4755144.3	5030729.3
19.58250	2913261.8	583684.8	2329577.0	3115225.7	619825.2	2495400.5	2806324.0	2124613.9	681710.1	9772002.7	4748337.1	5023665.6
19.58750	2906895.3	582044.7	2324850.6	3108420.4	618054.9	2490365.5	2802991.9	2122924.4	680067.5	9758097.1	4741500.3	5016596.8
19.59250	2900389.0	580572.7	2319816.3	3101456.3	616452.8	2485003.6	2799654.6	2121228.3	678426.3	9744166.5	4734651.2	5009515.3
19.59750	2894106.8	579256.9	2314849.9	3094715.7	615006.9	2479708.9	2795986.0	2119107.0	676879.0	9729624.6	4727515.1	5002109.6
19.60250	2886544.5	577531.5	2309013.0	3086721.5	613151.3	2473570.2	2792269.1	2116814.4	675454.7	9714814.3	4720247.8	4994566.5
19.60750	2880746.8	576729.4	2304017.4	3080530.6	612219.0	2468311.6	2787432.3	2113611.0	673821.2	9699960.1	4712962.0	4986998.1
19.61250	2877043.6	575955.1	2301088.6	3076457.4	611314.5	2465143.0	2779832.3	2107713.6	672118.7	9684951.2	4705603.4	4979347.9
19.61750	2875040.0	575232.9	2299807.1	3074083.9	610462.2	2463621.8	2772081.4	2101741.1	670340.3	9669961.2	4698253.2	4971708.0
19.62250	2873225.0	574399.2	2298825.8	3071885.0	609498.3	2462386.7	2761874.7	2093348.4	668526.3	9655273.8	4691034.5	4964239.3
19.62750	2869882.6	573462.3	2296420.4	3068120.6	608431.2	2459689.4	2750789.7	2084023.5	666766.2	9640729.4	4683881.3	4956848.1
19.63250	2865024.2	572525.2	2292499.0	3062840.2	607364.0	2455476.2	2739753.1	2074659.4	665093.7	9626148.9	4676712.4	4949436.4
19.63750	2859602.3	571565.4	2288037.0	3056996.5	606274.0	2450722.5	2728692.4	2065096.2	663596.1	9611440.4	4669501.9	4941938.5
19.64250	2851526.8	570597.7	2280929.1	3048495.6	605176.2	2443319.4	2717586.9	2055537.2	662049.6	9596716.7	4662285.1	4934431.5
19.64750	2844526.7	569549.0	2274977.7	3041031.1	603997.3	2437033.8	2705125.8	2045332.4	659793.4	9581423.8	4654780.2	4926643.6
19.65250	2839409.4	568487.0	2270922.5	3035444.7	602805.1	2432639.6	2692059.9	2034877.2	657182.7	9565897.1	4647154.8	4918742.4
19.65750	2833930.9	567590.4	2266340.5	3029453.9	601778.4	2427675.5	2679855.5	2025523.0	654332.5	9550366.7	4639530.0	4910836.7
19.66250	2828630.0	566681.1	2261948.9	3023580.2	600739.0	2422841.2	2670988.6	2020195.6	650793.0	9534860.2	4631917.3	4902942.9
19.66750	2823288.2	565712.3	2257575.9	3017583.1	599639.9	2417943.2	2661988.3	2014854.5	647133.8	9519348.6	4624303.5	4895045.1
19.67250	2816391.3	563743.8	2252647.5	3010031.1	597541.3	2412489.8	2655689.1	2012197.4	643491.7	9503845.8	4616699.1	4887146.7
19.67750	2810141.9	561700.4	2248441.5	3003139.6	595367.8	2407771.9	2649967.5	2010592.2	639375.3	9488341.7	4609098.1	4879243.6
19.68250	2807301.3	559514.5	2247786.8	2999685.5	593051.6	2406633.9	2646631.3	2011894.1	634737.2	9472744.1	4601448.2	4871295.9
19.68750	2807160.0	557339.4	2249820.5	2998930.9	590746.4	2408184.5	2648349.2	2017959.7	630389.4	9456874.6	4593658.8	4863215.7
19.69250	2806772.9	555321.7	2251451.2	2997940.0	588598.5	2409341.5	2650078.7	2025036.8	625041.9	9440991.0	4585861.0	4855130.0
19.69750	2806474.8	553323.1	2253151.7	2997051.0	586469.8	2410581.2	2650497.2	2029318.4	621178.8	9425153.8	4578090.7	4847063.1
19.70250	2805988.6	551325.7	2254662.9	2995974.1	584342.2	2411632.0	2649837.4	2032494.4	617343.0	9409334.6	4570333.5	4839001.1
19.70750	2805892.3	549960.0	2255932.3	2995282.3	582846.4	2412435.9	2649526.1	2035243.8	614282.3	9393516.4	4562581.2	4830935.2
19.71250	2803397.9	548651.7	2254746.2	2992188.3	581407.9	2410780.4	2648418.2	2036495.2	611923.0	9377685.5	4554836.5	4822849.0
19.71750	2799005.4	547396.4	2251609.0	2987196.1	580022.4	2407173.7	2647647.5	2037735.8	609911.7	9361844.9	4547087.6	4814757.3
19.72250	2793772.8	546253.1	2247519.8	2981368.4	578748.9	2402619.5	2645791.7	2038511.7	607280.0	9345879.2	4539257.8	4806621.5
19.72750	2786869.3	544590.6	2242278.7	2973858.2	576956.2	2396902.0	2643835.5	2039106.2	604729.3	9329854.3	4531390.5	4798463.8
19.73250	2779124.3	542329.2	2236795.1	2965399.4	574564.7	2390834.7	2641929.6	2039285.7	602644.0	9313872.7	4523557.0	4790315.6
19.73750	2771277.6	539931.4	2231346.2	2956867.3	572036.7	2384830.6	2640119.9	2037980.9	602139.1	9297981.0	4515794.5	4782186.6
19.74250	2765924.8	537534.9	2228389.9	2950890.1	569510.1	2381380.0	2638543.1	2036702.1	601841.0	9282250.3	4508120.8	4774129.5
19.74750	2764179.1	535092.3	2229086.8	2948528.3	566937.3	2381591.0	2639200.5	2036376.2	602824.2	9269163.0	4501710.1	4767452.9
19.75250	2762534.8	532641.1	2229893.7	2946268.0	564356.0	2381912.1	2640712.9	2036470.2	604242.7	9257323.7	4495890.2	4761433.5
19.75750	2760505.3	530191.6	2230313.7	2943622.7	561776.3	2381846.3	2642649.5	2036339.6	606309.9	9246642.1	4490640.7	4756001.4
19.76250	2758386.2	527741.2	2230645.0	2940787.0	559195.7	2381591.3	2645559.1	2035423.7	610135.3	9239596.6	4487229.1	4752367.5
19.76750	2755138.3	525204.3	2229934.1	2936784.8	556528.7	2380256.2	2648778.7	2034511.4	614267.3	9232650.0	4483840.2	4748809.8
19.77250	2747906.4	521895.0	2226011.5	2928872.1	553089.2	2375782.9	2654063.3	2034413.0	619650.3	9225676.3	4480429.5	4745246.8
19.77750	2741081.7	518551.6	2222530.1	2921629.7	549615.7	2372014.0	2661123.8	2034634.5	626489.4	9218694.2	4477010.4	4741683.9
19.78250	2735764.6	515204.3	2220560.4	2915933.7	546138.1	2369795.5	2667576.1	2034752.2	632823.9	9211685.0	4473573.9	4738111.1
19.78750	2731019.7	511856.5	2219163.2	2911033.8	542660.2	2368373.5	2672767.7	2034870.7	637897.0	9204596.6	4470078.9	4734517.7
19.79250	2725540.7	508288.7	2217252.0	2905412.4	538962.3	2366450.1	2677858.8	2034922.1	642936.7	9197504.4	4466582.1	4730922.3
19.79750	2720688.1	504929.3	2215758.8	2900365.8	535472.8	2364893.1	2680994.4	2033774.8	647219.7	9190553.4	4463163.2	4727390.2
19.80250	2717212.3	502854.1	2214358.3	2896676.5	533267.4	2363409.2	2683362.9	2032156.5	651206.4	9183659.1	4459774.9	4723884.2
19.80750	2713276.2	500829.8	2212446.4	2892505.8	531112.8	2361393.0	2685767.7	2030892.3	654875.4	9176847.4	4456419.6	4720427.8
19.81250	2709815.0	498680.5	2211134.5	2888780.6	528833.4	2359947.2	2688683.6	2030901.6	657782.0	9170323.8	4453187.6	4717136.3
19.81750	2705161.7	496655.4	2208506.4	2883829.5	526678.1	2357151.3	2691610.9	2030911.2	660699.7	9163805.0	4449956.9	4713848.0
19.82250	2701154.2	495081.4	2206072.9	2879524.2	524974.0	2354550.2	2692217.2	2029847.9	662369.4	9157316.3	4446760.7	4710555.6
19.82750	2696349.6	493172.2	2203177.4	2874422.5	522934.7	2351487.8	2691870.7	2028357.6	663513.1	9150837.6	4443577.8	4707259.8
19.83250	2691577.4	490951.2	2200626.2	2869368.0	520583.5	2348784.5	2691499.4	2027040.8	664458.5	9144357.3	4440392.8	4703964.5
19.83750	2686438.1	488469.9	2197968.2	2863987.8	517972.1	2346015.8	2692120.6	2026346.3	665774.3	9137870.6	4437204.4	4700666.2
19.84250	2680592.5	485819.1	2194773.4	2857886.7	515191.0	2342695.7	2692742.3	2025651.7	667090.5	9131381.1	4434013.5	4697367.6
19.84750	2674736.4	482728.9	2192007.5	2851746.1	511970.8	2339775.4	2692779.8	2024514.9	668264.9	9124876.7	4430789.7	4694086.9
19.85250	2668035.5	479343.6	2188691.9	2844760.5	508455.3	2336305.3	2692480.2	2023203.3	669276.8	9118368.8	4427555.3	4690813.4
19.85750	2661446.1	475964.3	2185481.8	2837886.6	504945.8	2332940.8	2692611.7	2021942.5	670669.3	9112065.3	4424430.3	4687635.1
19.86250	2654713.3	472399.9	2182313.4	2830869.1	501251.2	2329617.9	2693125.9	2020850.8	672275.0	9106350.5	4421632.7	4684717.9
19.86750	2647826.6	468751.3	2179075.3	2823690.2	497472.4	2326217.7	2693898.7	2019766.5	674132.2	9100657.7	4418849.4	4681808.4
19.87250	2640962.8	465103.6	2175859.2	2816533.5	493694.6	2322839.0	2695180.4	2018939.6	676240.7	9094694.3	4415905.8	4678788.5
19.87750	2633883.6	461448.2	2172435.5	2809161.6	489909.0	2319252.6	2696633.5	2018223.6	678410.0	9088624.7	4412902.1	4675722.6
19.88250	2626240.1	457931.7	2168308.4	2801356.9	486262.4	2315094.5	2697881.5	2017335.7	680545.8	9082567.5	4409910.1	4672657.4
19.88750	2619177.0	455400.9	2163776.1	2794135.0	483601.4	2310533.6	2698071.7	2015836.0	682235.7	9076574.7	4406971.2	4669603.5
19.89250	2611688.5	452871.0	2158817.6	2786366.5	480941.3	2305425.2	2698120.3	2014370.9	683749.4	9070596.9	4404042.6	4666554.3
19.89750	2602786.9	450340.1	2152446.8	2777058.6	478280.2	2298778.4	2698595.8	2013397.0	685198.8	9064873.5	4401231.0	4663642.5
19.90250	2595872.6	447751.9	2148120.7	2769737.1	475561.9	2294175.2	2699114.8	2012670.8	686444.0	9059270.6	4398476.7	4660793.9
19.90750	2591198.4	445033.5	2146164.9	2764672.5	472713.3	2291959.3	2698985.3	2011825.6	687159.7	9053741.2	4395752.9	4657988.2
19.91250	2586770.1	442337.1	2144433.0	2759855.8	469886.8	2289969.0	2697191.9	2010560.3	686631.6	9048427.0	4393116.3	4655310.7
19.91750	2582623.0	439640.5	2142982.5	2755320.2	467060.0	2288260.2	2695270.3	2009304.9	685965.4	9043119.0	4390481.1	4652637.9
19.92250	2581874.4	437276.3	2144598.1	2754183.1	464565.7	2289617.5	2693458.9	2008247.7	685211.3	9037871.3	4387898.3	4649972.9
19.92750	2580263.0	435179.5	2145083.5	2752183.3	462338.8	2289844.6	2691756.2	2007287.4	684468.9	9032642.6	4385331.7	4647310.9
19.93250	2577673.9	433052.5	2144621.4	2749205.7	460081.5	2289124.2	2689922.7	2006221.6	683701.1	9027452.2	4382780.0	4644672.2
19.93750	2574993.4	430924.6	2144068.9	2746103.0	457823.4	2288279.6	2687712.2	2004782.1	682930.1	9022377.5	4380266.5	4642111.0
19.94250	2571470.9	428711.8	2142759.1	2742153.9	455480.5	2286673.4	2685470.6	2003311.0	682159.6	9017308.5	4377755.7	4639552.8
19.94750	2566529.2	425993.0	2140536.2	2736785.8	452631.6	2284154.2	2683083.6	2001695.4	681388.2	9012422.1	4375337.5	4637084.7
19.95250	2560293.9	423238.1	2137055.8	2730105.4	449746.4	2280358.9	2680574.3	1999965.5	680608.8	9007609.0	4372954.7	4634654.3
19.95750	2554018.4	420484.5	2133533.9	2723374.1	446862.7	2276511.4	2678411.0	1998569.2	679841.8	9002870.7	4370611.8	4632258.9
19.96250	2547423.3	417730.9	2129692.4	2716329.0	443979.0	2272350.0	2677393.3	1998314.3	679078.9	8998366.3	4368398.2	4629968.1
19.96750	2540942.5	414973.6	2125968.9	2709399.4	441091.5	2268307.9	2676379.6	1998065.5	678314.2	8993864.2	4366184.3	4627679.8
19.97250	2537095.7	412202.9	2124892.8	2705104.1	438190.7	2266913.4	2674384.2	1996858.3	677525.9	8989352.6	4363941.9	4625410.7
19.97750	2533541.5	409428.2	2124113.3	2701101.0	435285.8	2265815.2	2671978.3	1995273.0	676705.3	8984834.2	4361686.2	4623147.9
19.98250	2529601.2	406331.9	2123269.3	2696745.5	432059.3	2264686.1	2669728.4	1993866.0	675862.4	8980336.9	4359447.9	4620889.0
19.98750	2524660.5	403141.6	2121519.0	2691403.8	428738.8	2262665.0	2667948.6	1992998.8	674949.8	8975887.0	4357248.1	4618638.9
19.99250	2518035.6	399871.2	2118164.4	2684378.0	425338.2	2259039.7	2666166.5	1992153.8	674012.7	8971447.6	4355056.0	4616391.6
19.99750	2511151.9	396582.6	2114569.3	2677093.3	421919.5	2255173.8	2663977.0	1990898.2	673078.8	8967142.0	4352917.8	4614224.2
20.00250	2504227.0	393211.4	2111015.5	2669767.5	418418.2	2251349.4	2661629.1	1989482.8	672146.3	8962902.4	4350810.3	4612092.0
20.00750	2497338.5	389303.5	2108035.0	2662478.2	414380.1	2248098.1	2659260.3	1988046.5	671213.8	8958763.7	4348749.1	4610014.7
20.01250	2495884.9	385394.1	2110490.8	2660623.6	410340.5	2250283.1	2656846.4	1986557.5	670288.8	8954913.4	4346809.6	4608103.8
20.01750	2494840.8	381571.7	2113269.2	2659178.7	406388.0	2252790.8	2654442.1	1985063.6	669378.5	8951077.9	4344879.0	4606198.9
20.02250	2491692.7	377663.1	2114029.6	2655629.6	402349.2	2253280.4	2652753.9	1984281.7	668472.2	8947274.0	4342999.2	4604274.8
20.02750	2485946.4	373748.9	2112197.5	2649491.4	398304.9	2251186.5	2651393.9	1983777.9	667616.0	8943481.3	4341137.0	4602344.3
20.03250	2479008.3	369648.9	2109359.4	2642155.5	394074.7	2248080.8	2649928.8	1983165.9	666762.9	8939668.4	4339260.4	4600408.0
20.03750	2471549.7	365204.1	2106345.6	2634288.7	389499.7	2244789.1	2648105.0	1982191.2	665913.8	8935797.0	4337343.6	4598453.4
20.04250	2463353.3	360017.0	2103336.3	2625684.1	384182.4	2241501.7	2646268.9	1981210.2	665058.7	8931929.3	4335430.1	4596499.2
20.04750	2455205.6	354731.7	2100473.9	2617128.3	378767.0	2238361.4	2644286.6	1980103.5	664183.1	8928157.0	4333600.3	4594556.7
20.05250	2446977.3	349597.8	2097379.5	2608487.7	373502.9	2234984.7	2642237.3	1978945.1	663292.2	8924429.3	4331809.8	4592619.5
20.05750	2439126.1	344890.6	2094235.5	2600232.2	368665.5	2231566.7	2640032.5	1977676.6	662355.9	8920802.5	4330060.6	4590741.9
20.06250	2431603.6	340519.5	2091084.1	2592307.5	364164.3	2228143.3	2637247.6	1976014.5	661233.1	8917472.0	4328441.9	4589030.1
20.06750	2424027.6	336223.6	2087804.0	2584329.3	359738.2	2224591.0	2634401.9	1974351.1	660050.8	8914241.8	4326878.5	4587363.4
20.07250	2416583.1	332261.7	2084321.5	2576482.6	355646.1	2220836.4	2631761.2	1972896.1	658865.1	8913262.2	4326388.6	4586873.5
20.07750	2409113.2	328248.7	2080864.6	2568610.4	351503.0	2217107.4	2629196.9	1971521.1	657675.8	8913262.8	4326373.5	4586889.3
20.08250	2401804.0	324356.6	2077447.4	2560898.9	347480.7	2213418.2	2626663.2	1970175.3	656487.9	8913367.1	4326423.5	4586943.6
20.08750	2394708.8	320537.4	2074171.4	2553408.6	343531.4	2209877.2	2624235.0	1968931.9	655303.1	8913696.1	4326605.5	4587090.6
20.09250	2387645.1	316779.1	2070865.9	2545954.4	339643.0	2206311.4	2621844.8	1967691.2	654153.6	8914039.2	4326796.6	4587242.6
20.09750	2380118.4	313022.3	2067096.2	2538037.4	335756.0	2202281.5	2619630.7	1966032.1	653598.6	8914343.5	4326946.4	4587397.2
20.10250	2372671.7	309504.0	2063167.7	2530200.3	332107.5	2198092.8	2617514.3	1964242.5	653271.7	8914635.0	4327081.5	4587553.5
20.10750	2365676.8	306441.9	2059234.9	2522821.3	328915.2	2193906.0	2615746.7	1962790.4	652956.3	8914998.6	4327258.2	4587740.4
20.11250	2359499.3	303378.5	2056120.8	2516259.5	325721.7	2190537.8	2614904.0	1962228.4	652675.6	8915604.6	4327583.1	4588021.4
20.11750	2356325.9	300452.1	2055873.8	2512702.0	322665.1	2190036.9	2614079.0	1961697.4	652381.6	8916216.7	4327910.0	4588306.7
20.12250	2354840.9	297908.1	2056932.8	2510833.6	319991.0	2190842.6	2612328.5	1960398.5	651930.0	8916871.7	4328256.3	4588615.5
20.12750	2353899.6	295603.8	2058295.8	2509521.4	317556.5	2191964.9	2610111.9	1958735.9	651376.0	8917547.5	4328612.4	4588935.1
20.13250	2350539.5	293443.9	2057095.5	2505791.5	315266.5	2190525.0	2607789.8	1957114.7	650675.1	8918263.5	4328988.0	4589275.5
20.13750	2348080.8	292171.3	2055909.4	2502963.0	313863.7	2189099.3	2605213.5	1955640.9	649572.6	8919066.4	4329394.6	4589671.8
20.14250	2345287.7	290930.8	2054356.8	2499800.2	312493.1	2187307.1	2602627.5	1954209.3	648418.2	8919879.6	4329808.6	4590071.0
20.14750	2339516.1	289791.7	2049724.4	2493658.8	311223.7	2182435.1	2600027.2	1952757.6	647269.5	8920754.5	4330287.4	4590467.1
20.15250	2331983.7	288653.0	2043330.7	2485756.7	309954.9	2175801.8	2597381.9	1951245.6	646136.3	8921653.9	4330792.5	4590861.4
20.15750	2323480.7	287513.9	2035966.8	2476883.8	308685.6	2168198.2	2594760.0	1949644.9	645115.2	8922646.1	4331345.5	4591300.6
20.16250	2312803.8	286375.2	2026428.6	2465837.2	307416.8	2158420.5	2592112.4	1947717.3	644395.0	8923901.2	4332043.1	4591858.1
20.16750	2301590.9	285236.1	2016354.8	2454254.4	306147.4	2148107.0	2589526.5	1945782.3	643744.2	8925167.9	4332745.1	4592422.8
20.17250	2293087.5	284097.4	2008990.1	2445395.6	304878.6	2140517.0	2587225.3	1943993.0	643232.3	8926404.4	4333424.9	4592979.5
20.17750	2286094.2	282958.7	2003135.5	2438047.3	303609.8	2134437.5	2585027.3	1942254.5	642772.8	8927630.3	4334097.9	4593532.4
20.18250	2282025.4	281819.6	2000205.9	2433623.5	302340.5	2131283.0	2582812.3	1940492.5	642319.7	8928847.9	4334763.8	4594084.1
20.18750	2279155.8	280765.7	1998390.1	2430398.9	301156.5	2129242.5	2580501.9	1938631.0	641870.9	8930047.0	4335415.3	4594631.7
20.19250	2277152.1	280121.9	1997030.2	2428038.3	300382.5	2127655.8	2578217.6	1936811.6	641406.0	8931244.8	4336063.3	4595181.4
20.19750	2275118.8	279478.4	1995640.5	2425639.9	299608.8	2126031.1	2575851.5	1934988.3	640863.2	8932484.9	4336700.6	4595784.3
20.20250	2266808.6	278834.6	1987974.0	2416963.1	298834.8	2118128.2	2573372.4	1933103.1	640269.4	8933750.9	4337336.8	4596414.1
20.20750	2254349.4	278191.1	1976158.4	2404137.5	298061.1	2106076.3	2570882.0	1931238.9	639643.0	8935112.5	4338023.2	4597089.3
20.21250	2242141.1	277565.1	1964576.0	2391563.4	297305.1	2094258.4	2568335.8	1929410.9	638924.9	8936771.7	4338874.0	4597897.7
20.21750	2236090.3	277089.1	1959001.2	2385151.1	296698.9	2088452.2	2565807.1	1927611.9	638195.2	8938447.4	4339732.5	4598714.9
20.22250	2229894.4	276613.3	1953281.1	2378590.9	296092.9	2082497.9	2562935.4	1925463.9	637471.5	8940126.8	4340590.2	4599536.6
20.22750	2222521.1	276137.3	1946383.8	2370850.9	295486.8	2075364.2	2559926.1	1923175.1	636751.0	8941820.4	4341459.5	4600360.9
20.23250	2213908.1	275661.5	1938246.6	2361874.4	294880.8	2066993.6	2557089.2	1921049.4	636039.7	8943506.4	4342321.1	4601185.3
20.23750	2207174.9	275185.6	1931989.4	2354777.6	294274.7	2060502.9	2554726.1	1919395.2	635330.9	8945168.4	4343158.0	4602010.5
20.24250	2200484.3	274709.8	1925774.5	2347722.9	293668.7	2054054.2	2552362.5	1917739.0	634623.5	8946833.8	4343996.8	4602836.9
20.24750	2194175.6	274234.0	1919941.7	2341049.6	293062.8	2047986.8	2550062.8	1916151.9	633910.8	8948594.4	4344899.9	4603694.6
20.25250	2192654.6	273758.0	1918896.6	2339163.8	292456.6	2046707.2	2547747.5	1914550.3	633197.2	8950395.7	4345829.0	4604566.7
20.25750	2195216.2	273282.2	1921934.1	2341360.7	291850.7	2049510.0	2545456.1	1912978.8	632477.3	8952276.8	4346806.1	4605470.8
20.26250	2194730.1	272806.2	1921923.9	2340509.7	291244.5	2049265.2	2543253.4	1911504.2	631749.2	8954351.9	4347877.1	4606474.8
20.26750	2195338.4	272330.4	1923008.1	2340753.4	290638.5	2050114.8	2541046.2	1910030.9	631015.4	8956455.3	4348975.2	4607480.1
20.27250	2197445.6	271854.4	1925591.2	2342495.7	290032.4	2052463.4	2539106.4	1908784.4	630321.9	8958561.9	4350096.8	4608465.1
20.27750	2199302.3	271378.6	1927923.7	2343986.5	289426.4	2054560.1	2537276.7	1907626.7	629650.1	8960689.7	4351249.1	4609440.6
20.28250	2199746.5	270902.6	1928843.8	2344061.1	288820.3	2055240.9	2535323.4	1906296.3	629027.1	8962807.6	4352391.8	4610415.8
20.28750	2199409.2	270426.8	1928982.3	2343352.5	288214.3	2055138.2	2532941.9	1904345.1	628596.8	8964945.0	4353555.6	4611389.5
20.29250	2198861.4	269950.8	1928910.6	2342431.8	287608.1	2054823.7	2530560.1	1902393.2	628166.9	8967070.9	4354708.2	4612362.7
20.29750	2197860.2	269675.1	1928185.1	2341057.8	287202.2	2053855.6	2528741.3	1901006.6	627734.7	8969180.3	4355853.2	4613327.1
20.30250	2196267.4	269399.9	1926867.6	2339091.8	286796.9	2052294.9	2527138.4	1899842.3	627296.1	8971246.3	4356958.8	4614287.5
20.30750	2194771.2	269124.6	1925646.6	2337208.5	286391.4	2050817.2	2525434.9	1898582.1	626852.8	8973349.4	4358091.7	4615257.6
20.31250	2192970.4	268849.4	1924121.0	2335020.9	285986.1	2049034.9	2523370.0	1896955.3	626414.7	8975574.1	4359316.0	4616258.1
20.31750	2190968.6	268574.1	1922394.5	2332632.1	285580.6	2047051.6	2521192.1	1895244.9	625947.2	8977788.1	4360527.8	4617260.3
20.32250	2188756.1	268298.9	1920457.2	2330032.8	285175.2	2044857.6	2518339.1	1893020.6	625318.4	8980068.8	4361777.5	4618291.3
20.32750	2186421.0	268023.6	1918397.4	2327302.0	284769.7	2042532.2	2515220.5	1890583.0	624637.4	8982366.0	4363031.0	4619335.0
20.33250	2184000.6	267748.4	1916252.3	2324467.8	284364.4	2040103.4	2512037.9	1888089.1	623948.8	8984662.6	4364273.0	4620389.6
20.33750	2181395.3	267473.2	1913922.1	2321448.7	283959.1	2037489.7	2508630.9	1885394.2	623236.8	8987008.6	4365529.0	4621479.7
20.34250	2178581.3	267197.9	1911383.4	2318220.8	283553.6	2034667.3	2505222.1	1882696.4	622525.7	8989350.3	4366778.9	4622571.4
20.34750	2175405.4	266922.7	1908482.8	2314631.2	283148.2	2031483.0	2501755.8	1879947.5	621808.2	8991710.3	4368046.7	4623663.6
20.35250	2171999.7	266647.4	1905352.3	2310829.7	282742.7	2028086.9	2498269.2	1877182.0	621087.2	8994067.1	4369310.5	4624756.6
20.35750	2169064.2	266372.2	1902692.1	2307529.7	282337.4	2025192.3	2495221.7	1874750.8	620471.0	8996408.3	4370558.0	4625850.3
20.36250	2166761.8	266096.9	1900664.9	2304865.6	281931.9	2022933.7	2493497.9	1873260.6	620237.3	8998698.9	4371751.9	4626946.9
20.36750	2164726.2	265821.7	1898904.5	2302468.5	281526.6	2020941.9	2491684.9	1871674.3	620010.6	9000988.1	4372944.6	4628043.5
20.37250	2162792.3	265546.5	1897245.8	2300173.0	281121.2	2019051.8	2489816.1	1869952.5	619863.6	9003248.2	4374106.2	4629142.0
20.37750	2160901.9	265271.2	1895630.7	2297921.0	280715.8	2017205.3	2487677.4	1867935.6	619741.8	9005496.9	4375255.1	4630241.8
20.38250	2158859.0	264996.0	1893863.0	2295516.6	280310.4	2015206.2	2486172.6	1866584.4	619588.2	9007616.4	4376327.4	4631289.0
20.38750	2157246.9	264720.7	1892526.2	2293542.9	279904.9	2013637.9	2485041.6	1865743.7	619298.0	9009343.8	4377157.6	4632186.2
20.39250	2155673.4	264445.5	1891227.9	2291607.9	279499.6	2012108.3	2484227.5	1865229.8	618997.7	9011003.0	4377971.2	4633031.8
20.39750	2154007.0	264170.2	1889836.8	2289578.3	279094.1	2010484.2	2483205.0	1864575.1	618629.9	9011250.1	4378080.8	4633169.3
20.40250	2152172.7	263895.0	1888277.7	2287379.5	278688.8	2008690.7	2482149.0	1863903.2	618245.8	9010862.4	4377890.6	4632971.9
20.40750	2150145.6	263619.7	1886525.9	2284987.7	278283.3	2006704.5	2481084.1	1863226.7	617857.5	9010434.8	4377685.4	4632749.4
20.41250	2147870.5	263344.5	1884526.0	2282348.0	277877.9	2004470.1	2479575.9	1862104.3	617471.6	9009922.1	4377431.5	4632490.6
20.41750	2145639.0	263069.2	1882569.8	2279751.9	277472.4	2002279.5	2478063.9	1860977.9	617086.0	9009405.2	4377176.4	4632228.8
20.42250	2142926.2	262794.0	1880132.2	2276674.6	277067.1	1999607.5	2476102.1	1859392.1	616710.0	9008816.1	4376844.1	4631972.0
20.42750	2139549.5	262518.8	1877030.6	2272933.3	276661.8	1996271.6	2473940.2	1857604.2	616336.1	9008192.8	4376477.8	4631715.0
20.43250	2135887.5	262243.5	1873644.0	2268906.7	276256.3	1992650.4	2471514.2	1855551.0	615963.1	9007473.9	4376074.1	4631399.8
20.43750	2132651.7	261968.3	1870683.4	2265306.4	275850.9	1989455.5	2468397.2	1852804.0	615593.2	9006465.3	4375554.9	4630910.4
20.44250	2129260.1	261693.0	1867567.1	2261550.2	275445.4	1986104.7	2465262.0	1850039.8	615222.1	9005442.3	4375030.1	4630412.2
20.44750	2126050.9	261417.8	1864633.1	2257976.4	275040.1	1982936.3	2463276.7	1848432.3	614844.5	9004374.1	4374459.4	4629914.6
20.45250	2122998.7	261142.5	1861856.2	2254561.9	274634.6	1979927.3	2461775.4	1847313.1	614462.3	9003290.5	4373873.5	4629417.0
20.45750	2120086.7	260867.3	1859219.4	2251289.4	274229.3	1977060.1	2459876.1	1845797.9	614078.3	9002217.8	4373296.4	4628921.4
20.46250	2116648.9	260592.1	1856056.8	2247491.1	273823.9	1973667.2	2457390.1	1843698.9	613691.1	9001194.0	4372762.7	4628431.3
20.46750	2113139.1	260316.8	1852822.3	2243620.7	273418.5	1970202.2	2454746.6	1841444.2	613302.4	9000170.7	4372229.3	4627941.5
20.47250	2109565.2	260041.6	1849523.6	2239686.2	273013.1	1966673.1	2451686.1	1838771.7	612914.4	8999169.4	4371713.6	4627455.7
20.47750	2105959.9	259766.3	1846193.6	2235777.9	272665.3	1963112.6	2448453.1	1835925.9	612527.2	8998180.8	4371209.5	4626971.4
20.48250	2102337.8	259491.1	1842846.7	2231885.3	272349.9	1959535.4	2445316.5	1833176.1	612140.3	8997157.3	4370681.2	4626476.1
20.48750	2098741.0	259215.8	1839525.2	2228017.8	272034.5	1955983.4	2442525.1	1830768.1	611756.9	8996030.3	4370082.9	4625947.4
20.49250	2095526.6	258940.6	1836586.0	2224532.9	271719.1	1952813.9	2439734.6	1828358.8	611375.7	8994894.4	4369481.8	4625412.5
20.49750	2092642.0	258665.4	1833976.6	2221377.8	271403.7	1949974.0	2433344.3	1822348.7	610995.6	8993659.7	4368875.1	4624784.6
20.50250	2088983.1	258390.1	1830593.0	2217448.2	271088.2	1946360.0	2425526.4	1814902.8	610623.6	8992380.7	4368266.2	4624114.5
20.50750	2084515.8	258114.9	1826400.8	2212710.3	270772.8	1941937.5	2418698.3	1808441.5	610256.8	8991079.1	4367637.3	4623441.9
20.51250	2079998.7	257839.6	1822159.0	2207918.6	270457.3	1937461.3	2415200.5	1805302.4	609898.1	8989765.8	4367001.0	4622764.8
20.51750	2075751.0	257564.5	1818186.6	2203395.9	270142.0	1933253.9	2411736.8	1802195.8	609541.0	8988438.8	4366352.5	4622086.3
20.52250	2071946.7	257289.2	1814657.6	2199316.4	269826.5	1929490.0	2409098.9	1799909.5	609189.4	8987048.7	4365687.0	4621361.6
20.52750	2070165.8	257014.0	1813151.8	2197260.4	269511.1	1927749.3	2406758.4	1797921.7	608836.7	8985629.1	4365012.9	4620616.2
20.53250	2067467.6	256738.7	1810728.9	2194287.0	269195.6	1925091.4	2405527.4	1797049.0	608478.4	8984146.8	4364309.7	4619837.2
20.53750	2064468.3	256463.5	1808004.9	2191012.7	268880.2	1922132.4	2408345.4	1800235.1	608110.4	8982511.8	4363548.2	4618963.6
20.54250	2063910.5	256188.2	1807722.3	2190179.6	268564.8	1921614.9	2411162.8	1803424.6	607738.2	8980862.0	4362777.5	4618084.5
20.54750	2063608.2	255913.0	1807695.3	2189602.3	268249.4	1921352.9	2416109.2	1808748.4	607360.8	8979139.4	4361934.2	4617205.1
20.55250	2060140.9	255637.8	1804503.2	2185859.9	267934.0	1917925.9	2421544.1	1814563.7	606980.4	8977389.2	4361062.7	4616326.5
20.55750	2055491.5	255362.5	1800129.1	2180935.3	267618.5	1913316.8	2427803.0	1821202.4	606600.6	8975646.3	4360202.0	4615444.3
20.56250	2048299.8	255087.3	1793212.5	2173468.5	267303.1	1906165.3	2435548.6	1829325.8	606222.7	8973964.2	4359409.6	4614554.6
20.56750	2042078.8	254812.0	1787266.8	2166972.3	266987.7	1899984.6	2443480.5	1837632.7	605847.8	8972273.6	4358611.2	4613662.4
20.57250	2039012.2	254536.8	1784475.4	2163630.6	266672.3	1896958.3	2449356.1	1843874.3	605481.8	8970500.3	4357764.1	4612736.2
20.57750	2039068.2	254495.1	1784573.1	2163411.4	266590.4	1896821.0	2454430.6	1849312.3	605118.3	8968686.7	4356895.2	4611791.5
20.58250	2041386.7	255240.9	1786145.8	2165458.8	267296.0	1898162.8	2457320.2	1852564.7	604755.5	8966775.3	4355972.0	4610803.3
20.58750	2045267.9	256333.8	1788934.0	2169081.7	268348.8	1900732.9	2459469.1	1855079.9	604389.1	8964554.3	4354870.3	4609684.1
20.59250	2051036.9	257841.6	1793195.3	2174592.3	269816.4	1904775.9	2461006.4	1856991.5	604014.9	8962320.5	4353764.8	4608555.7
20.59750	2055049.2	259196.7	1795852.5	2178346.3	271131.3	1907215.0	2460587.2	1857069.0	603518.2	8960198.5	4352764.6	4607433.9
20.60250	2058597.4	260179.4	1798418.0	2181636.1	272073.8	1909562.3	2459417.7	1856479.6	602938.1	8958120.4	4351805.6	4606314.8
20.60750	2061978.9	261177.7	1800801.3	2184759.3	273031.9	1911727.4	2457953.1	1855618.5	602334.6	8956022.3	4350827.0	4605195.2
20.61250	2066490.1	262449.7	1804040.4	2189012.1	274263.8	1914748.3	2455906.5	1854183.3	601723.2	8953857.0	4349784.6	4604072.4
20.61750	2070673.0	263814.0	1806858.9	2192936.7	275587.9	1917348.8	2453714.2	1852604.7	601109.6	8951693.8	4348744.5	4602949.4
20.62250	2074119.3	264813.0	1809306.3	2196122.2	276546.7	1919575.5	2451238.1	1850744.5	600493.6	8949700.7	4347866.7	4601834.0
20.62750	2075514.6	265636.8	1809877.8	2197242.7	277330.3	1919912.4	2448633.5	1848752.7	599880.8	8947778.6	4347058.4	4600720.2
20.63250	2075718.3	266276.3	1809441.9	2197171.6	277929.6	1919242.0	2445956.0	1846680.5	599275.5	8945865.5	4346247.3	4599618.1
20.63750	2075031.7	266916.1	1808115.6	2196210.2	278529.2	1917681.0	2443211.8	1844501.9	598709.9	8943977.2	4345422.2	4598555.0
20.64250	2074270.0	267555.6	1806714.4	2195173.8	279128.6	1916045.3	2440463.8	1842319.2	598144.6	8942090.8	4344597.0	4597493.8
20.64750	2073419.6	268103.4	1805316.2	2194048.6	279636.2	1914412.4	2437731.7	1840149.1	597582.6	8940126.4	4343672.4	4596454.0
20.65250	2071904.5	267933.8	1803970.7	2192258.7	279426.4	1912832.3	2435034.5	1837990.0	597044.5	8938133.3	4342707.9	4595425.3
20.65750	2069799.9	267764.2	1802035.7	2189879.3	279216.6	1910662.7	2432417.2	1835911.0	596506.2	8936148.4	4341750.5	4594397.9
20.66250	2067453.0	267594.6	1799858.4	2187257.7	279006.8	1908250.8	2430146.0	1834096.6	596049.3	8934198.7	4340821.7	4593376.9
20.66750	2065216.8	267475.3	1797741.5	2184746.6	278847.3	1905899.3	2428086.7	1832291.0	595795.7	8932245.7	4339890.2	4592355.5
20.67250	2063558.5	267377.7	1796180.8	2182813.6	278709.6	1904104.0	2427123.5	1831552.5	595571.0	8930112.8	4338790.0	4591322.8
20.67750	2062355.4	267304.7	1795050.7	2181335.8	278596.4	1902739.4	2426598.4	1831240.8	595357.6	8927910.9	4337625.5	4590285.4
20.68250	2061813.3	267202.8	1794610.5	2180584.4	278454.3	1902130.1	2426028.1	1830898.4	595129.7	8925695.2	4336448.5	4589246.7
20.68750	2062073.2	267101.2	1794972.0	2180666.4	278312.5	1902353.9	2425312.8	1830454.6	594858.2	8923449.1	4335242.2	4588206.8
20.69250	2062487.0	267005.4	1795481.7	2180902.1	278176.5	1902725.6	2424534.1	1829959.4	594574.7	8921198.9	4334033.8	4587165.1
20.69750	2062823.5	266917.5	1795906.0	2181060.6	278048.4	1903012.2	2423110.5	1829006.0	594104.5	8918953.6	4332830.4	4586123.1
20.70250	2063130.4	266829.5	1796300.9	2181189.5	277920.3	1903269.3	2421330.1	1827775.1	593555.0	8916707.0	4331628.9	4585078.1
20.70750	2063347.7	266741.6	1796606.0	2181228.8	277792.2	1903436.6	2419548.1	1826546.5	593001.6	8914458.1	4330430.7	4584027.4
20.71250	2063534.8	266650.4	1796884.3	2181215.6	277660.8	1903554.7	2417777.1	1825324.4	592452.7	8912197.8	4329244.6	4582953.2
20.71750	2063894.4	266558.5	1797335.9	2181367.3	277528.7	1903838.6	2416003.6	1824101.1	591902.4	8909881.3	4328035.0	4581846.3
20.72250	2064000.4	266423.9	1797576.5	2181265.5	277353.9	1903911.6	2414220.8	1822870.2	591350.6	8906638.0	4326383.9	4580254.1
20.72750	2063786.4	266282.7	1797503.7	2180843.7	277172.5	1903671.2	2412431.2	1821634.2	590797.0	8902930.7	4324515.4	4578415.3
20.73250	2062873.2	266098.8	1796774.3	2179727.9	276948.5	1902779.4	2410637.0	1820393.6	590243.5	8898919.3	4322506.4	4576412.9
20.73750	2061417.7	265836.0	1795581.6	2178062.2	276645.5	1901416.7	2408822.3	1819133.4	589688.9	8894026.4	4320085.0	4573941.5
20.74250	2059675.9	265532.5	1794143.4	2176110.5	276301.8	1899808.7	2407011.8	1817877.0	589134.8	8889092.4	4317641.4	4571451.0
20.74750	2057630.3	265193.8	1792436.6	2173854.8	275922.9	1897931.9	2405200.0	1816620.5	588579.5	8884147.6	4315190.4	4568957.1
20.75250	2055399.7	264852.8	1790546.8	2171408.4	275541.8	1895866.7	2403399.2	1815375.2	588023.9	8879190.3	4312733.5	4566456.8
20.75750	2053145.6	264495.2	1788650.4	2168871.7	275144.0	1893727.8	2401594.5	1814126.5	587467.9	8874225.8	4310264.5	4563961.4
20.76250	2050412.9	264089.9	1786322.9	2165856.2	274698.5	1891157.7	2399767.3	1812859.5	586907.8	8869229.5	4307750.9	4561478.6
20.76750	2046821.1	263656.7	1783164.4	2161942.7	274225.1	1887717.6	2397937.7	1811593.8	586343.9	8864234.9	4305237.8	4558997.0
20.77250	2042478.0	263214.2	1779263.8	2157263.3	273742.4	1883520.9	2396077.6	1810300.2	585777.4	8859216.2	4302709.8	4556506.4
20.77750	2037902.8	262757.9	1775144.8	2152351.9	273245.9	1879105.9	2394205.5	1808996.4	585209.2	8854190.7	4300177.6	4554013.1
20.78250	2033023.8	262282.3	1770741.5	2147136.6	272730.1	1874406.5	2392167.7	1807709.8	584457.9	8849172.0	4297651.1	4551520.9
20.78750	2027837.4	261780.6	1766056.8	2141591.6	272188.2	1869403.4	2389813.9	1806485.7	583328.2	8844152.8	4295118.2	4549034.6
20.79250	2022469.7	261198.2	1761271.4	2135858.3	271565.7	1864292.6	2387456.7	1805259.3	582197.4	8839139.0	4292591.2	4546547.8
20.79750	2016905.0	260378.1	1756526.9	2129922.9	270705.3	1859217.6	2384566.2	1803699.3	580866.9	8834142.4	4290077.4	4544065.0
20.80250	2011367.4	259582.2	1751785.2	2124014.7	269869.3	1854145.4	2380830.3	1802003.0	578827.3	8829154.3	4287570.8	4541583.5
20.80750	2005919.1	258786.1	1747133.1	2118195.6	269033.0	1849162.7	2376638.9	1800306.8	576332.1	8824174.0	4285069.5	4539104.4
20.81250	2000562.7	257983.0	1742579.7	2112468.6	268189.8	1844278.8	2370810.8	1798592.4	572218.4	8819236.7	4282597.6	4536639.1
20.81750	1995334.1	257192.1	1738142.0	2106870.4	267358.6	1839511.8	2364976.0	1796879.2	568096.8	8814280.2	4280107.7	4534172.5
20.82250	1990244.9	256431.1	1733813.7	2101411.7	266557.5	1834854.3	2358627.5	1795138.6	563488.9	8809310.5	4277608.8	4531701.7
20.82750	1985300.2	255670.6	1729629.6	2096097.6	265756.8	1830340.8	2352063.0	1793390.7	558672.3	8804329.2	4275101.4	4529227.7
20.83250	1980431.0	254910.4	1725520.5	2090860.2	264956.4	1825903.7	2345839.3	1791839.5	553999.8	8799326.7	4272570.4	4526756.3
20.83750	1975632.3	254156.4	1721475.9	2085709.7	264162.2	1821547.5	2340729.1	1791014.1	549715.0	8794276.8	4269988.6	4524288.2
20.84250	1970597.5	253389.9	1717207.6	2080305.8	263355.5	1816950.3	2335380.7	1790194.7	545186.1	8789224.2	4267404.6	4521819.5
20.84750	1965364.4	252622.4	1712742.0	2074693.3	262547.8	1812145.4	2330279.4	1789425.7	540853.7	8784153.8	4264806.2	4519347.6
20.85250	1960081.5	251837.0	1708244.5	2069032.6	261722.2	1807310.4	2325353.9	1788676.9	536677.0	8779072.0	4262199.0	4516872.9
20.85750	1954738.3	251047.7	1703690.6	2063317.8	260892.8	1802425.0	2320903.9	1787873.9	533030.0	8773992.2	4259593.3	4514398.8
20.86250	1949356.7	250262.2	1699094.5	2057563.2	260067.1	1797496.2	2318188.5	1786875.0	531313.5	8768907.9	4256985.5	4511922.4
20.86750	1943960.9	249468.2	1694492.7	2051800.8	259232.9	1792567.9	2315802.2	1785876.3	529925.9	8763826.8	4254379.8	4509447.0
20.87250	1938882.8	248692.9	1690190.0	2046386.3	258417.4	1787968.9	2313900.3	1784815.7	529084.6	8758756.4	4251782.5	4506973.8
20.87750	1934610.7	247931.4	1686679.3	2041777.7	257615.8	1784161.9	2312716.8	1783730.0	528986.8	8753689.6	4249188.8	4504500.8
20.88250	1930895.1	247181.3	1683713.8	2037725.6	256825.5	1780900.2	2311831.2	1782659.3	529171.9	8748623.0	4246593.2	4502029.8
20.88750	1927335.8	246435.5	1680900.3	2033829.8	256039.5	1777790.3	2311683.7	1781648.3	530035.4	8743559.5	4243998.7	4499560.7
20.89250	1923809.1	245712.4	1678096.6	2029966.6	255276.2	1774690.4	2311855.8	1780637.7	531218.1	8738495.9	4241403.3	4497092.7
20.89750	1920281.3	244995.5	1675285.8	2026105.9	254519.1	1771586.7	2311691.7	1779501.1	532190.6	8733415.1	4238806.1	4494609.0
20.90250	1916745.3	244297.2	1672448.1	2022251.0	253780.6	1768470.3	2311710.2	1778315.2	533395.0	8728329.5	4236209.1	4492120.4
20.90750	1913309.2	243607.9	1669701.3	2018498.8	253051.1	1765447.7	2311726.2	1777120.3	534605.8	8723243.7	4233612.6	4489631.2
20.91250	1909945.1	242940.5	1667004.7	2014820.7	252343.6	1762477.2	2311742.2	1775904.7	535837.5	8718169.8	4231026.3	4487143.5
20.91750	1906639.1	242278.8	1664360.3	2011199.1	251641.7	1759557.5	2311831.7	1774687.8	537143.9	8713094.0	4228439.0	4484655.0
20.92250	1903259.7	241620.6	1661639.1	2007501.6	250943.3	1756558.4	2312087.8	1773519.5	538568.3	8708017.0	4225854.1	4482162.9
20.92750	1899792.0	240942.9	1658849.2	2003715.9	250225.4	1753490.5	2312302.5	1772382.1	539920.5	8702939.5	4223270.4	4479669.1
20.93250	1896153.5	240249.3	1655904.3	1999759.1	249491.6	1750267.6	2312143.7	1771222.9	540920.8	8697882.1	4220697.2	4477184.9
20.93750	1892159.6	239551.5	1652608.1	1995447.1	248753.7	1746693.5	2310682.5	1770000.7	540681.9	8692895.3	4218159.8	4474735.5
20.94250	1887937.7	238849.8	1649087.8	1990907.0	248011.8	1742895.2	2309120.0	1768775.5	540344.5	8687913.8	4215624.8	4472288.9
20.94750	1883657.9	238145.2	1645512.7	1986309.1	247267.0	1739042.2	2308194.5	1767549.4	540645.1	8683156.1	4213206.4	4469949.8
20.95250	1879393.6	237434.5	1641959.0	1981726.6	246516.1	1735210.5	2307491.1	1766313.0	541178.1	8678493.8	4210838.8	4467655.1
20.95750	1875136.9	236720.4	1638416.4	1977151.8	245761.9	1731390.0	2306602.2	1765050.1	541552.1	8673829.5	4208466.9	4465362.7
20.96250	1870912.5	236009.0	1634903.5	1972609.4	245010.3	1727599.1	2305194.8	1763668.1	541526.7	8669150.1	4206078.0	4463072.2
20.96750	1866768.2	235310.2	1631457.9	1968146.8	244271.3	1723875.5	2303739.5	1762278.7	541460.9	8664468.2	4203687.5	4460780.7
20.97250	1863119.9	234632.2	1628487.7	1964180.4	243553.1	1720627.3	2301712.5	1760548.0	541164.5	8659811.1	4201310.1	4458501.0
20.97750	1859928.9	233967.7	1625961.2	1960671.3	242848.4	1717822.9	2299475.3	1758666.5	540808.8	8655135.5	4198918.8	4456216.7
20.98250	1857138.2	233305.4	1623832.8	1957562.4	242145.9	1715416.6	2296944.6	1756735.2	540209.4	8650142.2	4196373.0	4453769.1
20.98750	1855321.8	232642.8	1622679.1	1955427.9	241443.1	1713984.8	2294198.1	1754709.0	539489.1	8644162.4	4193377.1	4450785.2
20.99250	1853783.2	232015.1	1621768.1	1953571.1	240775.3	1712795.9	2291438.9	1752688.6	538750.3	8637794.8	4190160.0	4447634.8
20.99750	1852395.4	231392.3	1621003.0	1951865.2	240112.3	1711752.9	2288731.5	1750722.0	538009.5	8622102.5	4182599.6	4439502.9
21.00250	1851073.3	230769.3	1620304.0	1950224.9	239449.1	1710775.8	2286050.4	1748781.9	537268.5	8602319.7	4172973.0	4429346.7
21.00750	1849449.5	230146.5	1619302.9	1948283.0	238786.1	1709496.9	2283576.1	1746975.7	536600.4	8586004.3	4164997.1	4421007.1
21.01250	1846954.8	229477.5	1617477.3	1945470.1	238076.9	1707393.2	2281710.4	1745650.9	536059.6	8580312.3	4162140.1	4418172.2
21.01750	1843873.4	228713.9	1615159.5	1942070.7	237273.1	1704797.6	2280060.1	1744330.2	535730.0	8575230.3	4159555.4	4415674.9
21.02250	1839940.5	227941.8	1611998.7	1937819.5	236460.8	1701358.7	2278461.3	1743001.8	535459.5	8573276.6	4158514.4	4414762.2
21.02750	1834234.4	227120.0	1607114.4	1931736.4	235598.8	1696137.5	2276881.1	1741666.1	535215.0	8572696.8	4158091.5	4414605.3
21.03250	1827687.6	226208.6	1601479.0	1924801.4	234647.3	1690154.1	2274645.0	1739639.8	535005.2	8572165.0	4157710.7	4414454.3
21.03750	1820600.6	225225.5	1595375.0	1917326.2	233624.0	1683702.2	2271525.0	1736790.6	534734.5	8571653.9	4157341.0	4414312.9
21.04250	1812869.9	224193.1	1588676.8	1909207.4	232551.4	1676656.0	2267936.0	1733500.9	534435.0	8571084.5	4156932.9	4414151.6
21.04750	1804722.4	223154.9	1581567.5	1900671.8	231473.0	1669198.8	2261343.8	1727314.6	534029.2	8568993.6	4155810.1	4413183.5
21.05250	1796327.8	222094.2	1574233.6	1891889.1	230372.2	1661516.9	2253197.6	1719607.1	533590.5	8566243.0	4154355.3	4411887.7
21.05750	1787803.6	221032.0	1566771.6	1882941.8	229269.8	1653672.0	2244879.0	1711647.3	533231.7	8564064.5	4153155.7	4410908.8
21.06250	1779099.2	219973.2	1559126.0	1873790.7	228170.8	1645619.9	2235492.7	1702334.3	533158.4	8563636.0	4152840.5	4410795.4
21.06750	1770192.4	218914.0	1551278.4	1864427.0	227071.4	1637355.6	2226243.1	1693148.8	533094.4	8563320.9	4152557.8	4410763.1
21.07250	1761164.6	217855.3	1543309.3	1854977.7	225972.5	1629005.2	2214634.1	1681653.3	532980.8	8564182.8	4152849.8	4411333.0
21.07750	1752160.8	216796.1	1535364.8	1845552.3	224873.1	1620679.2	2202052.0	1669226.4	532825.6	8565552.5	4153382.8	4412169.7
21.08250	1743587.1	215737.3	1527849.9	1836557.0	223774.1	1612782.9	2188229.0	1655604.7	532624.3	8567299.3	4154102.4	4413197.0
21.08750	1735358.8	214678.5	1520680.3	1827907.2	222675.2	1605232.0	2169647.0	1637227.5	532419.6	8570242.3	4155392.1	4414850.2
21.09250	1727256.8	213619.3	1513637.5	1819383.5	221575.8	1597807.7	2151220.5	1619001.1	532219.4	8573230.7	4156700.1	4416530.6
21.09750	1719255.0	212560.5	1506694.5	1810960.2	220476.8	1590483.3	2134351.0	1602871.2	531479.8	8576836.3	4158309.1	4418527.2
21.10250	1711219.8	211501.3	1499718.5	1802492.5	219377.4	1583115.1	2118266.1	1587735.5	530530.6	8580697.6	4160043.4	4420654.2
21.10750	1703410.9	210442.5	1492968.4	1794237.4	218278.5	1575959.0	2102953.6	1573290.7	529662.9	8584565.0	4161780.7	4422784.3
21.11250	1694849.1	209475.9	1485373.2	1785229.4	217271.6	1567957.8	2090213.7	1561354.8	528858.9	8588422.1	4163532.4	4424889.8
21.11750	1685389.9	208524.8	1476865.1	1775324.1	216280.4	1559043.8	2077476.3	1549438.2	528038.1	8592128.2	4165210.5	4426917.8
21.12250	1674812.9	207540.7	1467272.2	1764301.0	215256.1	1549045.0	2064833.3	1537860.9	526972.4	8592586.8	4165296.2	4427290.7
21.12750	1663911.7	206556.2	1457355.5	1752925.9	214231.4	1538694.5	2052325.9	1526503.6	525822.3	8591578.1	4164678.6	4426899.5
21.13250	1652371.0	205572.1	1446799.0	1740829.6	213207.1	1527622.5	2040307.6	1515688.9	524618.7	8590175.9	4163862.1	4426313.8
21.13750	1640299.5	204546.5	1435753.1	1728201.3	212141.3	1516060.0	2029973.9	1506742.9	523231.0	8587736.0	4162557.6	4425178.4
21.14250	1627963.2	203535.6	1424427.6	1715308.4	211090.2	1504218.2	2019731.8	1497812.9	521918.8	8585254.7	4161229.8	4424024.9
21.14750	1615594.3	202613.7	1412980.5	1702382.6	210128.2	1492254.5	2008910.1	1488102.0	520808.1	8583069.7	4160048.7	4423021.0
21.15250	1604015.5	201964.9	1402050.5	1690257.5	209439.2	1480818.3	1998023.0	1478076.4	519946.6	8581063.2	4158949.6	4422113.6
21.15750	1596686.7	201441.6	1395245.1	1682574.0	208875.7	1473698.4	1988029.6	1468699.3	519330.3	8580885.1	4158680.7	4422204.4
21.16250	1593933.1	200918.4	1393014.6	1679501.6	208312.4	1471189.2	1980728.1	1461805.9	518922.2	8586159.3	4161159.7	4424999.6
21.16750	1593805.8	200395.1	1393410.7	1679103.8	207748.8	1471354.9	1973670.3	1454945.8	518724.5	8591705.4	4163723.1	4427982.3
21.17250	1594826.5	199872.0	1394954.6	1679957.8	207185.5	1472772.3	1967638.5	1448765.0	518873.5	8598174.1	4166734.1	4431440.0
21.17750	1596610.9	199348.8	1397262.0	1681607.9	206622.2	1474985.7	1962062.3	1442829.1	519233.1	8605033.0	4169933.9	4435099.1
21.18250	1598625.5	198825.5	1399800.0	1683493.1	206058.7	1477434.5	1956140.5	1436569.9	519570.7	8611779.5	4173074.9	4438704.7
21.18750	1600691.3	198319.5	1402371.8	1685429.7	205512.5	1479917.2	1949161.8	1429378.0	519783.9	8618160.6	4176008.0	4442152.5
21.19250	1603338.0	197878.6	1405459.4	1687947.0	205031.4	1482915.6	1942044.5	1422060.4	519984.0	8624387.5	4178864.5	4445523.0
21.19750	1609697.0	197541.5	1412155.5	1694176.7	204654.1	1489522.6	1933783.4	1414747.4	519035.9	8626325.4	4179641.8	4446683.6
21.20250	1617764.9	197316.6	1420448.3	1702124.1	204389.1	1497735.0	1925082.7	1407433.9	517648.8	8626325.8	4179466.8	4446859.0
21.20750	1626768.7	197120.8	1429647.8	1711100.7	204153.1	1506947.6	1916479.6	1400138.7	516340.9	8626326.0	4179294.0	4447032.0
21.21250	1636184.3	196911.4	1439272.9	1720482.4	203903.4	1516579.0	1908320.5	1392900.2	515420.2	8626355.1	4179133.7	4447221.5
21.21750	1645524.7	196667.9	1448856.8	1729777.4	203619.8	1526157.6	1900166.5	1385667.7	514498.9	8626385.2	4178973.9	4447411.3
21.22250	1654670.0	196495.9	1458174.1	1738877.1	203407.6	1535469.5	1892022.0	1378610.7	513411.3	8626416.1	4178821.6	4447594.5
21.22750	1663974.0	196514.1	1467459.9	1748135.7	203385.7	1544750.0	1883901.9	1371635.1	512266.7	8626448.4	4178673.3	4447775.1
21.23250	1673163.3	196522.3	1476641.0	1757279.5	203353.7	1553925.8	1876120.8	1364929.4	511191.4	8626662.6	4178621.0	4448041.6
21.23750	1682314.7	196601.8	1485712.9	1766385.4	203393.0	1562992.4	1869438.6	1359171.7	510266.9	8627431.4	4178845.6	4448585.8
21.24250	1691265.2	196781.2	1494483.9	1775292.2	203532.2	1571760.0	1862774.9	1353419.1	509355.9	8628229.9	4179088.1	4449141.8
21.24750	1699932.8	196960.6	1502972.2	1783919.3	203671.4	1580247.9	1855847.4	1347065.2	508782.2	8629498.8	4179565.9	4449932.9
21.25250	1708145.3	197140.1	1511005.2	1792091.2	203810.7	1588280.5	1848641.4	1340479.2	508162.2	8630968.6	4180145.5	4450823.1
21.25750	1716141.1	197376.7	1518764.5	1800044.3	204007.1	1596037.2	1841561.1	1334068.9	507492.2	8632630.8	4180817.3	4451813.5
21.26250	1723437.8	197627.3	1525810.4	1807295.8	204217.6	1603078.2	1835149.8	1328199.0	506950.9	8634863.2	4181766.2	4453097.0
21.26750	1727533.1	197877.9	1529655.2	1811216.6	204428.0	1606788.6	1828824.4	1322370.7	506453.8	8637192.3	4182747.4	4454444.9
21.27250	1728757.5	198128.6	1530628.9	1812190.6	204638.5	1607552.2	1823497.7	1317256.7	506241.0	8642108.2	4185008.0	4457100.2
21.27750	1726809.9	198379.2	1528430.7	1809928.4	204848.9	1605079.5	1818616.2	1312443.3	506172.9	8648112.9	4187790.8	4460322.1
21.28250	1723990.6	198629.9	1525360.8	1806761.8	205059.4	1601702.4	1813586.4	1307395.6	506190.8	8654322.8	4190669.7	4463653.1
21.28750	1720077.0	198669.0	1521408.1	1802488.0	205058.3	1597429.7	1807860.7	1301534.5	506326.2	8661083.0	4193802.8	4467280.2
21.29250	1715565.7	198533.5	1517032.2	1797600.4	204882.6	1592717.8	1802090.4	1295628.8	506461.6	8667838.6	4196936.4	4470902.2
21.29750	1710674.8	198380.5	1512294.3	1792333.5	204689.5	1587644.0	1796266.4	1290190.2	506076.2	8673361.0	4199468.9	4473892.1
21.30250	1705547.6	198209.7	1507338.0	1786830.3	204478.5	1582351.8	1790355.0	1284940.3	505414.7	8678318.6	4201739.5	4476579.1
21.30750	1700432.4	197989.5	1502442.9	1781338.8	204218.1	1577120.7	1784232.4	1279447.8	504784.5	8682319.2	4203515.7	4478803.4
21.31250	1695281.9	197769.4	1497512.6	1775812.3	203957.8	1571854.5	1777211.7	1273115.0	504096.7	8683295.0	4203868.3	4479426.7
21.31750	1689966.3	197549.2	1492417.1	1770120.5	203697.4	1566423.1	1770158.1	1266713.1	503444.9	8684153.0	4204149.0	4480004.0
21.32250	1684600.2	197329.1	1487271.1	1764378.3	203437.1	1560941.2	1763159.8	1260699.7	502460.1	8685011.5	4204435.4	4480576.1
21.32750	1679174.4	197075.2	1482099.2	1758576.3	203143.0	1555433.3	1756130.1	1254795.4	501334.7	8685875.4	4204728.7	4481146.7
21.33250	1673502.0	196758.2	1476743.8	1752527.9	202785.9	1549742.0	1749142.3	1248935.4	500206.9	8686924.2	4205110.1	4481814.0
21.33750	1667314.2	196441.3	1470872.9	1745918.7	202428.8	1543489.9	1742526.5	1243199.7	499326.9	8688550.3	4205777.9	4482772.5
21.34250	1660665.8	196124.2	1464541.6	1738843.8	202071.5	1536772.3	1735902.3	1237426.6	498475.7	8690194.9	4206453.1	4483741.8
21.34750	1653131.3	195807.2	1457324.0	1730883.0	201714.4	1529168.6	1729357.9	1231596.5	497761.4	8691715.8	4207076.5	4484639.4
21.35250	1644952.2	195490.2	1449462.0	1722227.4	201357.1	1520870.3	1722706.4	1225613.1	497093.3	8693180.2	4207673.5	4485506.7
21.35750	1636482.2	195173.2	1441308.9	1713275.5	201000.0	1512275.5	1715999.7	1219852.0	496147.7	8694605.1	4208251.0	4486354.1
21.36250	1627795.0	194851.4	1432943.6	1704106.4	200638.0	1503468.4	1709545.3	1214428.1	495117.2	8695920.7	4208776.6	4487144.1
21.36750	1618934.0	194523.7	1424410.3	1694763.6	200270.1	1494493.4	1703009.8	1209105.0	493904.8	8697248.8	4209309.7	4487939.1
21.37250	1609739.0	194196.0	1415543.0	1685086.7	199902.2	1485184.5	1696058.9	1203501.9	492557.1	8699001.9	4210053.9	4488948.0
21.37750	1599908.6	193868.2	1406040.4	1674774.3	199534.2	1475240.1	1688943.0	1197788.4	491154.6	8700946.8	4210892.9	4490053.9
21.38250	1589412.2	193540.5	1395871.7	1663796.0	199166.4	1464629.7	1681950.7	1191959.4	489991.3	8703186.0	4211875.5	4491310.5
21.38750	1578350.3	193212.7	1385137.6	1652252.1	198798.3	1453453.8	1675242.3	1185875.3	489367.0	8706273.7	4213278.0	4492995.7
21.39250	1567010.2	192885.0	1374125.3	1640430.3	198430.5	1441999.8	1668788.2	1180013.4	488774.9	8709319.7	4214660.9	4494658.9
21.39750	1555743.8	192557.1	1363186.6	1628681.8	198062.4	1430619.4	1662497.9	1174792.2	487705.7	8710128.3	4214955.7	4495172.6
21.40250	1544563.9	192229.4	1352334.4	1617020.1	197694.6	1419325.5	1656509.4	1170149.3	486360.1	8709978.3	4214788.5	4495189.8
21.40750	1533301.8	191901.6	1341400.2	1605276.0	197326.5	1407949.5	1650716.4	1165486.1	485230.2	8710120.4	4214766.1	4495354.3
21.41250	1522189.3	191573.9	1330615.4	1593681.7	196958.7	1396723.0	1645730.4	1160853.7	484876.7	8711263.3	4215234.4	4496029.0
21.41750	1511903.1	191246.1	1320657.1	1582913.5	196590.7	1386322.9	1640811.1	1156231.8	484579.3	8712522.9	4215761.5	4496761.4
21.42250	1502061.1	190918.4	1311142.7	1572589.7	196222.8	1376366.9	1638044.5	1153278.7	484765.8	8718783.9	4218715.4	4500068.5
21.42750	1492484.4	190590.7	1301893.7	1562682.3	195854.9	1366827.4	1636097.3	1151071.4	485025.9	8727178.7	4222706.5	4504472.2
21.43250	1483739.1	190262.9	1293476.2	1553769.5	195486.9	1358282.6	1633883.3	1148604.9	485278.4	8735580.9	4226693.0	4508887.9
21.43750	1475150.4	189935.2	1285215.2	1545013.4	195119.0	1349894.4	1630836.2	1145531.7	485304.5	8743965.7	4230659.0	4513306.7
21.44250	1466528.5	189607.3	1276921.2	1536224.0	194751.0	1341473.0	1627872.1	1142557.5	485314.6	8752231.4	4234587.0	4517644.3
21.44750	1458076.9	189279.6	1268797.2	1527604.9	194383.1	1333221.8	1623958.3	1138699.4	485258.9	8756403.8	4236501.0	4519902.8
21.45250	1449796.9	188951.8	1260845.1	1519157.4	194015.1	1325142.3	1619658.5	1134487.8	485170.7	8758701.3	4237539.8	4521161.5
21.45750	1443471.8	188624.1	1254847.7	1512677.3	193647.2	1319030.0	1614929.6	1130148.9	484780.8	8759430.8	4237821.2	4521609.6
21.46250	1437857.0	188296.4	1249560.6	1506929.7	193279.3	1313650.4	1608902.0	1125339.1	483562.9	8755031.7	4235579.1	4519452.6
21.46750	1432545.8	187968.6	1244577.2	1501485.7	192911.3	1308574.4	1602881.2	1120536.7	482344.5	8750456.8	4233265.1	4517191.7
21.47250	1428049.7	187640.9	1240408.8	1496856.8	192543.4	1304313.4	1596780.0	1115594.4	481185.6	8745873.5	4230944.6	4514928.9
21.47750	1425109.9	187313.1	1237796.8	1493784.2	192175.4	1301608.8	1590552.1	1110502.0	480050.1	8741292.0	4228619.4	4512672.5
21.48250	1423866.4	186985.4	1236881.1	1492408.0	191807.6	1300600.5	1584421.3	1105460.9	478960.4	8737325.0	4226596.4	4510728.7
21.48750	1423596.3	186657.5	1236938.8	1492005.1	191439.5	1300565.6	1578264.6	1100339.2	477925.3	8735353.4	4225496.1	4509857.3
21.49250	1426936.3	186329.8	1240606.5	1495212.4	191071.7	1304140.7	1572147.1	1095208.0	476939.1	8733448.1	4224441.8	4509006.3
21.49750	1432407.8	186002.1	1246405.7	1500551.1	190703.8	1309847.3	1566842.0	1090952.5	475889.5	8733806.3	4224480.3	4509326.0
21.50250	1439712.7	185674.3	1254038.4	1507723.1	190335.8	1317387.3	1562000.7	1087216.6	474784.1	8735094.0	4224952.6	4510141.4
21.50750	1448174.5	185346.6	1262827.9	1516052.2	189967.9	1326084.3	1556899.1	1083123.7	473775.4	8736391.9	4225431.9	4510960.0
21.51250	1457671.1	185018.8	1272652.3	1525416.0	189599.9	1335816.1	1551857.7	1078768.6	473089.1	8737686.1	4225907.9	4511778.3
21.51750	1468400.7	184691.1	1283709.7	1536012.8	189232.0	1346780.8	1546484.1	1074199.7	472284.4	8738933.6	4226377.6	4512556.0
21.52250	1480007.0	184363.3	1295643.7	1547486.3	188864.0	1358622.3	1541072.9	1069705.3	471367.6	8738320.5	4225926.8	4512393.7
21.52750	1493178.9	184035.6	1309143.4	1560525.5	188496.1	1372029.4	1535442.8	1065245.5	470197.3	8736879.5	4225096.9	4511782.6
21.53250	1508944.7	183707.7	1325237.0	1576158.4	188128.1	1388030.3	1529622.9	1060609.6	469013.3	8734737.1	4223926.4	4510810.7
21.53750	1525530.1	183380.0	1342150.1	1592611.1	187760.2	1404850.9	1523467.9	1055608.7	467859.2	8730300.8	4221632.1	4508668.7
21.54250	1542186.4	183052.2	1359134.2	1609134.5	187392.2	1421742.3	1517300.8	1050558.5	466742.3	8725801.9	4219313.6	4506488.3
21.54750	1559178.9	182724.5	1376454.4	1626068.9	187024.3	1439044.6	1511251.9	1045514.7	465737.2	8721308.8	4216997.6	4504311.2
21.55250	1575007.0	182396.8	1392610.2	1641728.9	186656.4	1455072.5	1505327.0	1040461.9	464865.1	8716816.6	4214682.2	4502134.4
21.55750	1588654.3	182069.0	1406585.3	1655208.1	186288.4	1468919.7	1499532.0	1035621.7	463910.3	8712837.5	4212596.0	4500241.5
21.56250	1598526.5	181741.3	1416785.3	1664912.3	185920.5	1478991.7	1494187.2	1031554.5	462632.7	8710454.3	4211320.4	4499133.9
21.56750	1600181.9	181413.5	1418768.4	1666399.5	185552.5	1480846.9	1488856.8	1027498.2	461358.6	8708128.2	4210049.9	4498078.3
21.57250	1594596.5	181085.8	1413510.8	1660646.0	185184.7	1475461.4	1483453.6	1023368.8	460084.8	8707147.5	4209433.0	4497714.5
21.57750	1585913.4	180757.9	1405155.4	1651794.7	184816.6	1466978.1	1478014.2	1019222.1	458792.2	8706710.2	4209076.5	4497633.7
21.58250	1575746.6	180430.2	1395316.4	1641459.9	184448.8	1457011.1	1472490.7	1015073.3	457417.5	8706266.8	4208715.6	4497551.2
21.58750	1566903.6	180102.5	1386801.1	1632467.5	184080.9	1448386.6	1466965.4	1010904.1	456061.3	8705793.1	4208337.6	4497455.5
21.59250	1581375.8	179774.7	1401601.1	1647030.9	183712.9	1463318.0	1461418.0	1006705.6	454712.4	8705310.4	4207956.6	4497353.9
21.59750	1614396.5	179447.0	1434949.5	1680553.7	183345.0	1497208.7	1455999.1	1002956.3	453042.8	8701626.8	4206027.6	4495599.2
21.60250	1644125.0	179119.2	1465005.8	1710684.5	182977.0	1527707.5	1450611.2	999366.8	451244.4	8696647.5	4203474.2	4493173.3
21.60750	1639542.5	178791.5	1460751.0	1705839.5	182609.1	1523230.4	1445400.7	995845.7	449555.0	8690888.3	4200544.0	4490344.2
21.61250	1633233.8	178463.7	1454770.2	1699160.1	182241.1	1516919.0	1440899.9	992634.0	448265.9	8682290.1	4196240.1	4486050.0
21.61750	1627104.5	178136.0	1448968.5	1692645.2	181873.2	1510772.0	1436420.1	989442.4	446977.6	8673691.2	4191935.7	4481755.5
21.62250	1621123.9	177808.3	1443315.6	1686278.5	181505.3	1504773.2	1431776.5	986522.4	445254.1	8664822.7	4187507.1	4477315.6
21.62750	1615317.0	177480.4	1437836.5	1680085.5	181137.3	1498948.2	1427076.9	983721.0	443356.0	8655841.9	4183025.9	4472816.0
21.63250	1610182.2	177152.7	1433029.5	1674599.9	180769.4	1493830.5	1422520.3	981048.7	441471.7	8647508.8	4178865.0	4468643.8
21.63750	1605725.2	176824.9	1428900.3	1669825.7	180401.4	1489424.3	1418613.2	979041.0	439572.2	8641448.6	4175798.6	4465650.1
21.64250	1603735.0	176497.2	1427237.8	1667518.4	180033.5	1487484.8	1414698.9	977012.8	437686.1	8635415.9	4172753.3	4462662.5
21.64750	1603813.7	176169.4	1427644.3	1667393.5	179665.5	1487727.9	1411036.6	975003.6	436033.0	8631856.1	4170895.8	4460960.3
21.65250	1604410.1	175841.7	1428568.4	1667798.0	179297.6	1488500.4	1407489.7	973007.4	434482.3	8629310.8	4169534.1	4459776.7
21.65750	1604820.7	175513.8	1429306.8	1668016.1	178929.6	1489086.4	1403508.8	970735.8	432773.0	8626763.2	4168174.7	4458588.5
21.66250	1604897.4	175186.1	1429711.3	1667900.4	178561.8	1489338.6	1398015.6	967477.4	430538.2	8624209.8	4166824.3	4457385.5
21.66750	1604890.6	174858.3	1430032.3	1667701.1	178193.7	1489507.4	1392479.0	964201.1	428277.9	8621650.2	4165469.1	4456181.1
21.67250	1604504.7	174530.6	1429974.1	1667122.8	177825.9	1489296.9	1386698.7	960513.9	426184.8	8618380.3	4163776.5	4454603.8
21.67750	1603211.1	174202.9	1429008.2	1665573.4	177458.0	1488115.4	1380801.6	956643.1	424158.5	8614816.2	4161938.9	4452877.3
21.68250	1600239.9	173875.1	1426364.8	1662309.6	177090.0	1485219.6	1374893.6	952942.6	421951.1	8611095.1	4160028.6	4451066.5
21.68750	1596818.6	173547.4	1423271.2	1658595.7	176722.1	1481873.6	1369037.0	949882.3	419154.7	8606873.1	4157891.2	4448981.9
21.69250	1593137.7	173219.6	1419918.1	1654547.1	176354.1	1478193.0	1363117.7	946983.8	416133.9	8602634.9	4155743.2	4446891.7
21.69750	1589301.0	172891.9	1416409.1	1650122.8	175986.2	1474136.6	1355694.8	943059.6	412635.2	8598288.3	4153542.9	4444745.4
21.70250	1585503.8	172564.0	1412939.7	1645737.7	175618.2	1470119.5	1348027.9	938698.4	409329.6	8593891.4	4151318.4	4442573.0
21.70750	1581979.8	172236.3	1409743.4	1641626.1	175250.3	1466375.8	1340671.0	934433.1	406237.9	8589553.3	4149117.8	4440435.4
21.71250	1578610.7	171908.6	1406702.1	1637669.5	174882.4	1462787.0	1333620.4	930283.0	403337.4	8585378.1	4146994.0	4438384.1
21.71750	1575567.0	171580.8	1403986.2	1634037.9	174514.4	1459523.5	1327425.7	926210.5	401215.3	8581239.6	4144879.3	4436360.2
21.72250	1573126.4	171253.1	1401873.3	1631009.7	174146.5	1456863.1	1322434.3	922816.8	399617.5	8577843.5	4143132.8	4434710.6
21.72750	1571009.5	170925.3	1400084.2	1628305.0	173778.5	1454526.5	1318081.3	919808.3	398273.0	8574789.4	4141547.8	4433241.6
21.73250	1569170.5	170597.6	1398572.9	1625878.3	173410.6	1452467.7	1313780.6	916486.9	397293.7	8571842.0	4140009.8	4431832.2
21.73750	1567352.9	170269.8	1397083.2	1623472.9	173042.6	1450430.3	1309087.5	911425.8	397661.7	8569202.6	4138606.2	4430596.4
21.74250	1565402.7	169942.1	1395460.7	1620935.1	172674.7	1448260.4	1304392.5	906362.9	398029.5	8566598.9	4137218.7	4429380.2
21.74750	1563215.3	169614.4	1393601.0	1618160.1	172306.9	1445853.2	1300547.2	901327.7	399219.5	8564847.8	4136249.4	4428598.4
21.75250	1560553.8	169286.5	1391267.2	1614910.7	171938.9	1442971.9	1297214.5	896322.7	400891.8	8563477.2	4135463.9	4428013.3
21.75750	1557127.7	168958.8	1388168.9	1610897.0	171571.0	1439326.1	1293646.9	891391.4	402255.5	8562086.4	4134668.1	4427418.4
21.76250	1553259.9	168631.0	1384628.9	1606441.4	171203.0	1435238.4	1290104.9	886689.9	403415.0	8560631.2	4133838.7	4426792.5
21.76750	1549233.4	168303.3	1380930.1	1601827.3	170835.1	1430992.2	1286378.9	881985.3	404393.6	8559173.4	4133008.3	4426165.1
21.77250	1545139.7	167975.5	1377164.2	1597145.7	170467.1	1426678.7	1282337.7	876843.9	405493.8	8557708.5	4132178.7	4425529.9
21.77750	1540945.1	167647.8	1373297.3	1592363.6	170099.2	1422264.4	1278173.3	871553.9	406619.4	8556241.5	4131349.8	4424891.7
21.78250	1536759.4	167320.0	1369439.5	1587590.0	169731.2	1417858.8	1273727.8	866242.7	407485.2	8554772.1	4130518.9	4424253.2
21.78750	1532222.9	166992.3	1365230.7	1582465.9	169363.3	1413102.6	1268831.1	860881.7	407949.3	8553295.1	4129681.9	4423613.2
21.79250	1528581.8	166664.4	1361917.4	1578237.0	168995.3	1409241.7	1263682.9	855553.7	408129.1	8551817.4	4128844.8	4422972.6
21.79750	1525921.1	166336.7	1359584.4	1574988.6	168627.4	1406361.2	1258326.5	850315.7	408010.7	8550325.7	4128017.9	4422307.8
21.80250	1523265.0	166009.0	1357255.9	1571744.9	168259.5	1403485.4	1252927.5	845162.6	407765.0	8548827.4	4127195.3	4421632.1
21.80750	1520650.9	165681.2	1354969.7	1568543.0	167891.5	1400651.5	1246917.5	839726.3	407191.2	8547328.9	4126378.2	4420950.7
21.81250	1517877.8	165353.5	1352524.3	1565182.2	167523.6	1397658.6	1240009.9	833765.0	406244.9	8545830.1	4125578.7	4420251.4
21.81750	1515256.4	165025.7	1350230.7	1561973.0	167155.6	1394817.4	1233012.1	827777.3	405234.8	8544333.0	4124780.1	4419552.9
21.82250	1512380.7	164698.0	1347682.7	1558509.7	166787.7	1391722.0	1225577.7	821968.8	403608.8	8542959.1	4124043.2	4418915.9
21.82750	1509548.3	164370.2	1345178.1	1555089.5	166419.7	1388669.8	1217847.6	816240.5	401607.2	8541637.9	4123332.5	4418305.4
21.83250	1506718.9	164042.5	1342676.5	1551672.5	166051.8	1385620.7	1210202.5	810448.0	399754.5	8540443.1	4122688.9	4417754.2
21.83750	1503889.4	163714.8	1340174.6	1548255.4	165684.0	1382571.4	1202741.2	804404.2	398337.1	8539645.9	4122244.4	4417401.4
21.84250	1501094.5	163386.9	1337707.6	1544872.6	165316.0	1379556.7	1195281.3	798328.2	396953.1	8538859.8	4121809.2	4417050.7
21.84750	1498383.0	163059.2	1335323.7	1541573.5	164948.1	1376625.4	1187922.2	792182.7	395739.5	8538077.4	4121375.0	4416702.4
21.85250	1495815.0	162731.4	1333083.6	1538417.7	164580.1	1373837.6	1180303.3	785959.9	394343.4	8537296.4	4120941.9	4416354.5
21.85750	1493321.3	162403.7	1330917.6	1535336.4	164212.2	1371124.2	1172263.4	779574.8	392688.5	8536515.7	4120511.5	4416004.2
21.86250	1490888.4	162075.9	1328812.5	1532315.6	163844.2	1368471.5	1163939.8	773033.8	390906.0	8535729.0	4120085.9	4415643.1
21.86750	1488538.8	161748.2	1326790.6	1529378.4	163476.3	1365902.1	1155582.9	766502.2	389080.7	8534944.8	4119662.4	4415282.4
21.87250	1486223.3	161420.5	1324802.8	1526475.3	163108.4	1363366.8	1146772.0	759435.6	387336.4	8534201.9	4119258.3	4414943.6
21.87750	1483949.5	161092.7	1322856.8	1523613.6	162740.4	1360873.3	1137830.1	752153.8	385676.3	8533477.8	4118864.1	4414613.6
21.88250	1481691.1	160765.0	1320926.1	1520767.6	162372.5	1358395.1	1128901.4	744886.6	384014.9	8532802.6	4118495.9	4414306.6
21.88750	1479454.5	160437.1	1319017.3	1517943.2	162004.5	1355938.7	1119600.6	737304.1	382296.5	8532268.0	4118205.1	4414063.0
21.89250	1477251.0	160109.4	1317141.6	1515152.1	161636.6	1353515.5	1109939.1	729211.5	380727.5	8531740.1	4117917.2	4413823.0
21.89750	1475124.5	159781.6	1315342.9	1512437.8	161268.6	1351169.2	1100376.8	721140.2	379236.6	8531234.5	4117639.8	4413594.7
21.90250	1473313.8	159453.9	1313859.8	1510039.4	160900.7	1349138.7	1090983.1	713092.8	377890.3	8530736.3	4117365.3	4413371.0
21.90750	1471539.0	159126.1	1312412.9	1507676.8	160532.7	1347144.1	1081592.0	705059.2	376532.8	8530244.4	4117091.9	4413152.5
21.91250	1469915.3	158798.4	1311116.9	1505465.5	160164.8	1345300.6	1071223.5	696295.2	374928.3	8529776.2	4116827.4	4412948.8
21.91750	1468212.0	158470.6	1309741.4	1503174.4	159796.8	1343377.6	1060763.1	687472.3	373290.8	8529311.5	4116564.7	4412746.8
21.92250	1466048.5	158142.9	1307905.7	1500423.3	159428.9	1340994.4	1049585.6	677907.9	371677.7	8528953.4	4116358.0	4412595.4
21.92750	1463540.2	157815.2	1305725.0	1497327.3	159061.1	1338266.2	1038002.8	667936.4	370066.4	8528642.6	4116177.3	4412465.4
21.93250	1460853.4	157487.3	1303366.0	1494052.7	158693.1	1335359.6	1025678.7	657191.1	368487.7	8528370.3	4116010.8	4412359.6
21.93750	1458056.9	157159.6	1300897.3	1490668.6	158325.2	1332343.5	1011545.1	644536.0	367009.1	8528196.8	4115892.4	4412304.4
21.94250	1455202.6	156831.8	1298370.8	1487226.4	157957.2	1329269.3	997289.9	631819.8	365470.1	8528029.3	4115773.3	4412256.0
21.94750	1452229.8	156504.1	1295725.7	1483666.1	157589.3	1326076.8	983695.6	619914.4	363781.2	8527852.7	4115656.3	4412196.5
21.95250	1449260.3	156176.3	1293084.0	1480108.7	157221.3	1322887.5	970171.8	608198.1	361973.8	8527670.9	4115538.5	4412132.5
21.95750	1446282.1	155848.6	1290433.5	1476542.9	156853.4	1319689.5	956806.6	596437.6	360369.0	8527499.5	4115424.4	4412075.1
21.96250	1443311.5	155520.9	1287790.7	1472984.7	156485.5	1316499.2	943337.6	584409.8	358927.8	8527350.5	4115323.4	4412027.0
21.96750	1440320.4	155193.1	1285127.4	1469405.8	156117.5	1313288.3	930644.6	572981.1	357663.4	8527203.9	4115222.5	4411981.4
21.97250	1437299.7	154865.4	1282434.3	1465797.4	155749.6	1310047.8	918223.7	561891.6	356332.1	8527054.6	4115118.4	4411936.2
21.97750	1434222.4	154537.5	1279684.9	1462132.3	155381.6	1306750.7	906545.6	551602.6	354943.0	8526903.9	4115013.1	4411890.8
21.98250	1431149.2	154209.8	1276939.3	1458471.5	155013.7	1303457.7	896445.2	542786.0	353659.1	8526756.6	4114908.3	4411848.3
21.98750	1428071.2	153882.0	1274189.2	1454805.7	154645.7	1300160.0	891221.3	538739.6	352481.7	8526619.4	4114804.6	4411814.8
21.99250	1424968.0	153554.3	1271413.7	1451114.9	154277.8	1296837.0	886167.8	534803.1	351364.7	8526481.8	4114700.5	4411781.3
21.99750	1421823.8	153226.6	1268597.2	1447383.0	153910.0	1293473.1	883661.8	533349.3	350312.6	8526280.0	4114557.2	4411722.8
22.00250	1418689.4	152898.8	1265790.6	1443660.8	153541.9	1290118.9	881260.8	531974.7	349286.2	8526050.7	4114396.9	4411653.8
22.00750	1415542.5	152571.0	1262971.5	1439926.0	153173.9	1286752.1	878801.5	530587.0	348214.5	8525802.2	4114221.8	4411580.3
22.01250	1412525.7	152243.3	1260282.5	1436321.7	152806.0	1283515.6	876111.8	529155.5	346956.3	8525494.1	4113996.4	4411497.7
22.01750	1409424.7	151915.6	1257509.2	1432633.0	152438.2	1280194.9	873999.6	528313.3	345686.2	8525183.1	4113770.3	4411412.7
22.02250	1406290.8	151587.7	1254703.1	1428911.3	152070.1	1276841.1	872304.6	527694.3	344610.3	8524850.5	4113536.4	4411314.1
22.02750	1403164.0	151260.0	1251904.0	1425196.9	151702.3	1273494.6	870773.7	527101.6	343672.1	8524506.8	4113298.4	4411208.4
22.03250	1400078.9	150932.3	1249146.6	1421524.1	151334.4	1270189.8	869228.8	526508.6	342720.2	8524166.3	4113058.7	4411107.5
22.03750	1397013.4	150604.5	1246408.9	1417870.8	150966.4	1266904.4	867755.5	526010.7	341744.8	8523834.2	4112812.8	4411021.4
22.04250	1393962.1	150276.7	1243685.4	1414231.7	150598.4	1263633.3	866253.4	525484.0	340769.4	8523502.4	4112566.8	4410935.6
22.04750	1390899.6	149949.0	1240950.6	1410581.5	150230.5	1260351.1	864790.4	525037.0	339753.4	8523158.9	4112325.7	4410833.2
22.05250	1388081.7	149621.3	1238460.4	1407176.1	149862.6	1257313.5	863318.5	524601.9	338716.6	8522810.5	4112086.5	4410724.0
22.05750	1385348.5	149293.5	1236055.1	1403855.1	149494.6	1254360.5	862046.8	524182.5	337864.3	8522459.2	4111847.6	4410611.6
22.06250	1382621.2	148965.8	1233655.5	1400540.1	149126.7	1251413.4	861491.1	523886.4	337604.7	8522098.6	4111610.5	4410488.1
22.06750	1380004.5	148637.9	1231366.6	1397335.6	148758.7	1248576.9	860989.9	523596.0	337393.9	8521738.1	4111373.2	4410364.9
22.07250	1377361.9	148361.4	1229000.4	1394105.3	148442.0	1245663.3	860823.9	523485.9	337338.0	8521387.5	4111138.5	4410249.0
22.07750	1374747.1	148097.7	1226649.3	1390902.7	148138.1	1242764.6	860771.0	523439.4	337331.6	8521040.9	4110904.6	4410136.3
22.08250	1372149.8	147834.1	1224315.7	1387717.8	147834.3	1239883.5	860460.9	523298.8	337162.2	8520693.3	4110670.5	4410022.8
22.08750	1369487.8	147570.5	1221917.3	1384508.1	147570.5	1236937.6	859196.7	522813.8	336382.9	8520340.9	4110435.3	4409905.6
22.09250	1366782.5	147306.8	1219475.7	1381308.5	147306.8	1234001.7	857958.1	522355.3	335602.8	8519987.8	4110199.7	4409788.1
22.09750	1364163.8	147043.2	1217120.6	1378305.3	147043.2	1231262.1	857369.1	522164.4	335204.7	8519315.7	4109808.0	4409507.7
22.10250	1361449.5	146779.5	1214670.0	1375552.2	146779.5	1228772.7	857076.7	522098.0	334978.7	8518514.6	4109353.2	4409161.4
22.10750	1358991.2	146515.9	1212475.4	1373055.2	146515.9	1226539.4	856893.3	522060.4	334832.9	8517708.2	4108895.8	4408812.4
22.11250	1356605.6	146252.2	1210353.4	1370630.8	146252.2	1224378.7	857016.5	522085.0	334931.5	8516881.6	4108428.8	4408452.8
22.11750	1353725.5	145988.6	1207736.9	1367712.0	145988.6	1221723.4	857139.3	522107.2	335032.1	8516054.8	4107961.6	4408093.2
22.12250	1351289.2	145724.9	1205564.3	1365237.0	145724.9	1219512.1	857602.8	522230.6	335372.2	8515163.8	4107463.2	4407700.6
22.12750	1348971.0	145461.2	1203509.7	1362880.0	145461.2	1217418.8	858203.5	522402.8	335800.7	8514242.3	4106947.6	4407294.7
22.13250	1346969.9	145197.5	1201772.3	1360840.2	145197.5	1215642.7	858966.8	522803.6	336163.2	8512190.4	4105885.9	4406304.5
22.13750	1345964.6	144933.9	1201030.7	1359796.2	144933.9	1214862.3	860314.8	524017.5	336297.2	8506122.8	4102901.4	4403221.5
22.14250	1345823.6	144670.3	1201153.3	1359616.5	144670.3	1214946.1	861554.7	525132.5	336422.2	8500035.7	4099906.0	4400129.8
22.14750	1344747.9	144406.6	1200341.3	1358502.1	144406.6	1214095.5	861555.3	525229.4	336325.9	8494626.9	4097230.7	4397396.2
22.15250	1342869.9	144143.0	1198726.9	1356585.3	144143.0	1212442.3	861143.9	524934.4	336209.6	8489534.8	4094693.3	4394841.4
22.15750	1341265.8	143879.4	1197386.4	1354942.5	143879.4	1211063.1	861173.2	524923.1	336250.1	8486822.0	4093328.2	4393493.8
22.16250	1340100.4	143615.7	1196484.8	1353738.3	143615.7	1210122.7	862931.2	525956.1	336975.1	8492148.5	4095832.9	4396315.6
22.16750	1338612.2	143352.0	1195260.3	1352211.4	143352.0	1208859.4	864233.6	526989.1	337244.5	8497494.1	4098342.7	4399151.3
22.17250	1337289.2	143088.4	1194200.9	1350849.7	143088.4	1207761.3	864025.8	527180.1	336845.7	8499004.4	4099033.0	4399971.4
22.17750	1334031.2	142824.7	1191206.5	1347553.0	142824.7	1204728.2	863324.3	527034.8	336289.5	8498913.2	4098904.7	4400008.5
22.18250	1329629.7	142561.0	1187068.6	1343112.6	142561.0	1200551.6	863160.2	527071.7	336088.6	8500595.1	4099670.2	4400925.0
22.18750	1326382.1	142297.4	1184084.7	1339826.4	142297.4	1197528.9	864058.5	527858.8	336199.7	8508081.5	4103258.4	4404823.2
22.19250	1323935.9	142033.7	1181902.2	1337341.4	142033.7	1195307.7	865443.5	528737.8	336705.7	8515806.5	4106946.5	4408860.0
22.19750	1323022.3	141770.1	1181252.2	1336389.1	141770.1	1194619.0	867735.6	530160.7	337574.9	8524357.1	4111011.7	4413345.3
22.20250	1321944.8	141541.4	1180403.4	1335272.8	141541.4	1193731.4	870324.3	531800.8	338523.5	8533189.2	4115224.2	4417965.1
22.20750	1319444.6	141365.8	1178078.9	1332733.9	141365.8	1191368.2	872026.8	533047.9	338978.9	8537679.7	4117387.2	4420292.4
22.21250	1316288.5	141190.1	1175098.3	1329539.0	141190.1	1188348.9	872165.0	532841.8	339323.2	8530296.6	4113754.8	4416541.8
22.21750	1313236.4	141014.4	1172221.9	1326448.2	141014.4	1185433.8	872096.3	532635.4	339460.9	8522020.6	4109728.4	4412292.2
22.22250	1309669.2	140838.8	1168830.3	1322842.2	140838.8	1182003.4	871786.9	532251.3	339535.6	8512746.5	4105216.3	4407530.2
22.22750	1304932.6	140663.1	1164269.5	1318066.9	140663.1	1177403.8	871334.3	531837.9	339496.4	8503057.3	4100511.2	4402546.1
22.23250	1299915.9	140487.5	1159428.3	1313011.5	140487.5	1172523.9	871347.4	531757.4	339589.9	8494699.1	4096439.0	4398260.1
22.23750	1295115.9	140311.8	1154804.1	1308172.7	140311.8	1167860.9	872263.9	532114.4	340149.4	8490660.6	4094413.1	4396247.5
22.24250	1290759.7	140136.2	1150623.5	1303777.9	140136.2	1163641.7	873181.1	532485.0	340696.1	8486662.6	4092445.3	4394217.4
22.24750	1286392.0	139960.6	1146431.4	1299371.4	139960.6	1159410.8	873435.4	532202.4	341233.0	8480334.5	4089322.5	4391012.0
22.25250	1282232.7	139784.9	1142447.8	1295173.4	139784.9	1155388.5	873251.6	531657.6	341594.0	8472954.7	4085670.9	4387283.8
22.25750	1279539.5	139609.2	1139930.3	1292441.4	139609.2	1152832.2	873669.9	531728.0	341941.9	8468202.5	4083274.6	4384927.9
22.26250	1278462.9	139433.6	1139029.3	1291326.1	139433.6	1151892.5	877157.1	534339.2	342817.9	8471458.1	4084868.4	4386589.6
22.26750	1278955.0	139258.0	1139697.0	1291779.5	139258.0	1152521.5	880968.6	536970.4	343998.2	8475191.7	4086601.8	4388589.9
22.27250	1278321.5	139082.3	1139239.2	1291107.3	139082.3	1152025.0	883435.4	538855.4	344579.9	8481601.3	4089645.3	4391955.9
22.27750	1277305.1	138906.7	1138398.4	1290052.1	138906.7	1151145.4	885101.5	540334.1	344767.4	8489201.6	4093249.3	4395952.4
22.28250	1276309.8	138731.1	1137578.7	1289018.0	138731.1	1150287.0	886759.7	541804.9	344954.9	8495016.1	4095994.9	4399021.2
22.28750	1275285.2	138555.4	1136729.8	1287954.7	138555.4	1149399.3	889086.0	543561.2	345524.8	8495548.3	4096197.7	4399350.6
22.29250	1273537.2	138379.7	1135157.5	1286168.0	138379.7	1147788.3	891569.0	545281.8	346287.2	8495635.7	4096219.5	4399416.2
22.29750	1271062.0	138204.1	1132858.0	1283654.1	138204.1	1145450.0	892255.0	545898.0	346357.0	8490801.1	4093801.7	4396999.4
22.30250	1268458.8	138028.4	1130430.4	1281012.2	138028.4	1142983.7	892192.6	546043.1	346149.5	8483698.7	4090322.4	4393376.3
22.30750	1265750.3	137852.8	1127897.5	1278264.8	137852.8	1140412.1	893100.4	546710.7	346389.6	8479366.2	4088189.0	4391177.3
22.31250	1263203.5	137677.1	1125526.3	1275679.3	137677.1	1138002.2	895417.6	548422.1	346995.5	8482862.5	4089772.6	4393089.9
22.31750	1262076.8	137501.4	1124575.4	1274513.9	137501.4	1137012.5	897833.2	550231.9	347601.3	8486899.5	4091661.3	4395238.3
22.32250	1261194.1	137325.8	1123868.3	1273592.5	137325.8	1136266.7	900476.7	552116.9	348359.7	8491299.8	4093720.7	4397579.1
22.32750	1259439.2	137150.1	1122289.1	1271798.8	137150.1	1134648.7	904078.3	554015.4	350062.8	8495777.7	4095789.7	4399988.0
22.33250	1256961.2	136974.5	1119986.7	1269282.1	136974.5	1132307.6	907321.3	555627.2	351694.1	8495239.9	4095559.1	4399680.8
22.33750	1254015.7	136798.9	1117216.8	1266297.9	136798.9	1129499.0	910098.8	556581.6	353517.2	8479922.1	4088056.3	4391865.9
22.34250	1250834.4	136623.2	1114211.2	1263077.9	136623.2	1126454.6	912887.2	557517.9	355369.4	8464161.3	4080363.8	4383797.4
22.34750	1247861.9	136447.6	1111414.3	1260066.6	136447.6	1123619.0	916463.6	559018.4	357445.2	8455014.0	4075906.9	4379107.1
22.35250	1245127.7	136271.9	1108855.8	1257293.6	136271.9	1121021.7	920381.8	560840.5	359541.3	8448683.0	4072800.6	4375882.3
22.35750	1242650.7	136096.3	1106554.4	1254777.9	136096.3	1118681.6	924353.4	562641.9	361711.5	8443004.5	4070027.7	4372976.9
22.36250	1239801.9	135920.6	1103881.3	1251890.4	135920.6	1115969.8	927908.9	563966.8	363942.1	8438944.2	4068003.0	4370941.3
22.36750	1235810.5	135783.1	1100027.4	1247860.3	135783.1	1112077.2	931392.6	565300.3	366092.3	8434962.7	4066027.5	4368935.1
22.37250	1232040.9	135681.0	1096359.9	1244051.9	135681.0	1108370.9	935223.2	567204.8	368018.4	8430208.7	4063669.3	4366539.4
22.37750	1228377.6	135578.8	1092798.8	1240349.9	135578.8	1104771.0	938905.2	569225.8	369679.5	8425089.1	4061132.1	4363957.0
22.38250	1224369.8	135476.6	1088893.1	1236303.3	135476.6	1100826.7	941721.1	570707.3	371013.8	8418543.8	4057922.6	4360621.1
22.38750	1220065.0	135374.5	1084690.5	1231959.8	135374.5	1096585.3	942333.0	570657.6	371675.4	8407990.6	4052774.7	4355215.9
22.39250	1215555.6	135272.4	1080283.2	1227411.7	135272.4	1092139.3	943171.8	570721.5	372450.3	8397134.9	4047481.0	4349653.9
22.39750	1211036.6	135170.2	1075866.4	1222854.0	135170.2	1087683.8	944766.4	571378.8	373387.5	8385152.0	4041642.6	4343509.4
22.40250	1206726.6	135068.1	1071658.5	1218505.2	135068.1	1083437.1	946925.6	572607.8	374317.9	8372695.9	4035561.8	4337134.1
22.40750	1201664.1	134965.9	1066698.1	1213404.0	134965.9	1078438.0	949114.4	573828.3	375286.1	8361573.7	4030140.7	4331433.0
22.41250	1197949.7	134895.4	1063054.4	1209650.9	134895.4	1074755.5	951035.0	574956.3	376078.7	8354891.6	4026892.0	4327999.6
22.41750	1195008.0	134863.3	1060144.7	1206670.4	134863.3	1071807.1	952895.2	576091.7	376803.5	8348641.0	4023835.8	4324805.3
22.42250	1192347.0	134831.3	1057515.7	1203970.6	134831.3	1069139.3	955494.2	577675.5	377818.7	8346982.6	4022964.7	4324017.9
22.42750	1189952.1	134799.3	1055152.8	1201537.0	134799.3	1066737.7	958564.4	579548.2	379016.2	8347450.1	4023116.7	4324333.4
22.43250	1188110.4	134767.2	1053343.2	1199656.6	134767.2	1064889.4	961709.3	581498.5	380210.8	8347327.4	4022998.6	4324328.9
22.43750	1186267.2	134735.2	1051532.0	1197774.6	134735.2	1063039.4	964595.5	583506.9	381088.5	8345201.8	4021910.3	4323291.6
22.44250	1183974.5	134703.1	1049271.3	1195443.2	134703.1	1060740.0	967361.4	585505.3	381856.1	8342911.8	4020751.6	4322160.2
22.44750	1181534.2	134671.1	1046863.1	1192964.2	134671.1	1058293.1	969147.6	586866.8	382280.8	8338245.6	4018440.5	4319805.1
22.45250	1179020.5	134639.1	1044381.4	1190411.7	134639.1	1055772.6	970496.6	587832.1	382664.4	8332681.3	4015658.2	4317023.1
22.45750	1176979.7	134607.0	1042372.7	1188332.2	134607.0	1053725.2	972329.6	589230.1	383099.6	8328356.1	4013518.4	4314837.7
22.46250	1175206.5	134575.0	1040631.5	1186520.3	134575.0	1051945.3	975333.5	591343.4	383990.1	8327789.0	4013190.1	4314598.9
22.46750	1173632.1	134542.9	1039089.2	1184907.1	134542.9	1050364.2	978601.7	593592.9	385008.8	8327476.3	4012978.8	4314497.5
22.47250	1172071.2	134510.9	1037560.3	1183307.5	134510.9	1048796.6	982017.1	596259.8	385757.3	8326273.7	4012319.3	4313954.3
22.47750	1170562.6	134478.9	1036083.8	1181760.2	134478.9	1047281.3	985458.9	599046.2	386412.7	8324570.2	4011399.7	4313170.5
22.48250	1168411.2	134446.8	1033964.3	1179570.0	134446.8	1045123.2	988083.2	601371.7	386711.5	8318206.9	4008277.5	4309929.3
22.48750	1165514.0	134414.8	1031099.2	1176634.0	134414.8	1042219.2	988402.4	602300.7	386101.7	8297968.4	3998472.3	4299496.0
22.49250	1161552.9	134382.8	1027170.2	1172634.3	134382.8	1038251.5	988512.3	602863.7	385648.6	8277474.6	3988429.2	4289045.4
22.49750	1158991.2	134350.7	1024640.5	1170033.9	134350.7	1035683.1	990718.1	605240.1	385478.0	8268625.9	3984190.1	4284435.8
22.50250	1157053.9	134318.7	1022735.2	1168057.8	134318.7	1033739.1	993984.2	608368.0	385616.2	8265415.1	3982599.7	4282815.4
22.50750	1155225.0	134286.6	1020938.3	1166190.1	134286.6	1031903.5	996369.0	610864.1	385504.9	8261976.8	3980876.6	4281100.2
22.51250	1153098.6	134254.6	1018844.0	1164025.0	134254.6	1029770.4	997153.3	611795.9	385357.4	8257505.7	3978660.7	4278845.0
22.51750	1150636.5	134222.6	1016414.0	1161524.2	134222.6	1027301.7	997280.8	612473.4	384807.4	8253042.9	3976449.7	4276593.2
22.52250	1148500.6	134190.5	1014310.1	1159349.6	134190.5	1025159.0	998675.6	613926.1	384749.5	8249503.6	3974674.6	4274829.0
22.52750	1146889.4	134158.5	1012730.9	1157699.6	134158.5	1023541.1	1000604.5	615780.4	384824.1	8246378.8	3973098.7	4273280.1
22.53250	1145329.3	134126.4	1011202.8	1156100.7	134126.4	1021974.3	1000795.2	616607.1	384188.0	8243127.4	3971460.9	4271666.5
22.53750	1143516.1	134094.4	1009421.7	1154248.8	134094.4	1020154.4	998729.9	615499.8	383230.1	8239515.2	3969655.1	4269860.1
22.54250	1141519.2	134062.4	1007456.9	1152213.2	134062.4	1018150.8	995983.3	614065.2	381918.1	8235870.2	3967837.5	4268032.7
22.54750	1140334.1	134030.3	1006303.8	1150989.3	134030.3	1016959.0	994012.4	613086.8	380925.6	8232165.4	3965983.2	4266182.2
22.55250	1139172.7	133998.3	1005174.5	1149789.3	133998.3	1015791.0	992499.1	612307.7	380191.4	8228431.0	3964111.3	4264319.6
22.55750	1137784.6	133966.2	1003818.3	1148362.4	133966.2	1014396.1	990563.8	611329.3	379234.6	8224714.5	3962246.1	4262468.3
22.56250	1136409.5	133934.2	1002475.3	1146948.5	133934.2	1013014.3	987977.7	609955.7	378022.0	8221072.8	3960414.4	4260658.4
22.56750	1135014.0	133902.2	1001111.9	1145514.4	133902.2	1011612.2	985364.9	608587.4	376777.4	8217387.2	3958572.4	4258814.9
22.57250	1133621.3	133870.1	999751.2	1144082.9	133870.1	1010212.8	982771.1	607148.0	375623.0	8211817.3	3955818.0	4255999.4
22.57750	1131846.6	133838.1	998008.5	1142269.4	133838.1	1008431.4	980258.3	605675.0	374583.2	8205401.1	3952643.4	4252757.7
22.58250	1130042.3	133828.5	996213.9	1140426.4	133828.5	1006598.0	977715.7	604248.4	373467.3	8198873.8	3949418.9	4249454.9
22.58750	1128147.0	133901.4	994245.7	1138492.4	133901.4	1004591.0	975173.9	602859.7	372314.2	8192036.3	3946046.6	4245989.7
22.59250	1126259.7	134088.1	992171.6	1136566.4	134088.1	1002478.3	972184.5	601178.7	371005.8	8185251.5	3942688.5	4242563.0
22.59750	1124011.5	134274.8	989736.7	1134279.4	134274.8	1000004.6	968569.1	599249.4	369319.7	8179880.8	3940025.9	4239854.9
22.60250	1121994.7	134461.5	987533.2	1132223.8	134461.5	997762.3	964528.7	597159.6	367369.1	8175199.9	3937687.4	4237512.4
22.60750	1120367.0	134648.2	985718.8	1130557.4	134648.2	995909.2	960835.1	595211.7	365623.4	8170795.2	3935485.7	4235309.5
22.61250	1118600.5	134834.9	983765.6	1128752.2	134834.9	993917.3	957569.4	593565.6	364003.8	8167163.2	3933658.9	4233504.2
22.61750	1116678.7	135021.6	981657.1	1126791.7	135021.6	991770.1	954274.1	592004.3	362269.9	8163480.5	3931809.1	4231671.4
22.62250	1114477.8	135208.3	979269.6	1124552.1	135208.3	989343.8	950072.8	589666.5	360406.2	8158449.2	3929328.4	4229120.8
22.62750	1111989.5	135395.0	976594.5	1122025.0	135395.0	986630.0	944967.1	586939.1	358028.1	8152720.8	3926497.9	4226222.9
22.63250	1109173.6	135581.7	973591.9	1119170.4	135581.7	983588.6	939657.4	584105.1	355552.3	8146760.2	3923556.8	4223203.4
22.63750	1106357.0	135768.4	970588.6	1116315.1	135768.4	980546.6	934180.1	581126.1	353054.0	8140177.7	3920324.1	4219853.6
22.64250	1103444.1	135955.1	967489.1	1113363.4	135955.1	977408.3	928405.3	578056.3	350349.0	8133305.0	3916989.0	4216316.0
22.64750	1099870.3	136141.8	963728.5	1109750.9	136141.8	973609.1	922143.3	574531.1	347612.2	8121869.7	3911363.6	4210506.1
22.65250	1095777.1	136328.5	959448.6	1105618.9	136328.5	969290.5	915477.2	570653.9	344823.3	8108242.0	3904759.8	4203482.2
22.65750	1092293.6	136515.1	955778.4	1102096.7	136515.1	965581.5	909403.4	567218.7	342184.7	8097193.3	3899381.8	4197811.5
22.66250	1089345.4	136701.9	952643.6	1099109.8	136701.9	962407.9	904509.3	564558.0	339951.3	8093966.3	3897744.5	4196221.8
22.66750	1086923.9	136888.6	950035.2	1096649.5	136888.6	959760.8	899752.2	562031.5	337720.8	8090987.0	3896252.4	4194734.6
22.67250	1084986.6	137075.3	947911.3	1094673.4	137075.3	957598.1	893701.0	558831.8	334869.2	8085591.5	3893620.7	4191970.8
22.67750	1082410.4	137262.0	945148.4	1092058.5	137262.0	954796.5	887082.6	555361.3	331721.4	8079054.0	3890458.2	4188595.9
22.68250	1078939.5	137448.7	941490.8	1088548.8	137448.7	951100.1	880031.7	551637.9	328393.7	8069204.8	3885745.9	4183458.9
22.68750	1074942.0	137635.4	937306.6	1084512.7	137635.4	946877.3	871966.6	547187.0	324779.6	8049473.0	3876044.2	4173428.8
22.69250	1070174.5	137822.1	932352.4	1079706.4	137822.1	941884.3	863939.9	542697.2	321242.8	8029309.7	3866226.8	4163082.9
22.69750	1064901.3	138008.8	926892.5	1074394.5	138008.8	936385.7	856764.4	538691.7	318072.8	8011422.4	3857545.3	4153877.1
22.70250	1060282.0	138195.5	922086.5	1069736.5	138195.5	931541.0	850152.7	534879.2	315273.5	7994543.4	3849356.2	4145187.2
22.70750	1056465.0	138382.2	918082.8	1065880.7	138382.2	927498.5	843336.7	530941.0	312395.8	7978027.3	3841326.3	4136701.0
22.71250	1051606.2	138568.8	913037.4	1060983.2	138568.8	922414.4	835841.8	526535.0	309306.8	7962683.2	3833874.7	4128808.5
22.71750	1047044.5	138755.6	908288.9	1056382.7	138755.6	917627.1	828175.4	522101.2	306074.2	7947411.4	3826465.6	4120945.8
22.72250	1043117.0	138942.3	904174.7	1052416.5	138942.3	913474.3	820960.6	518031.3	302929.2	7935043.3	3820434.2	4114609.1
22.72750	1039678.8	139129.0	900549.8	1048939.5	139129.0	909810.5	813902.4	514062.9	299839.6	7923916.6	3814988.7	4108927.9
22.73250	1036534.5	139315.7	897218.8	1045756.5	139315.7	906440.9	806926.7	510168.6	296758.1	7915052.7	3810651.0	4104401.7
22.73750	1033513.2	139502.4	894010.8	1042696.5	139502.4	903194.1	800180.1	506528.5	293651.6	7913658.4	3809917.1	4103741.3
22.74250	1030588.1	139689.1	890899.0	1039732.7	139689.1	900043.6	793515.5	502928.6	290586.9	7912561.3	3809326.0	4103235.4
22.74750	1027755.9	139875.7	887880.2	1036861.7	139875.7	896986.0	788000.0	500036.9	287963.1	7914702.5	3810276.5	4104426.1
22.75250	1024918.0	140062.5	884855.6	1033985.1	140062.5	893922.7	782919.3	497449.9	285469.4	7918299.0	3811923.1	4106375.9
22.75750	1021917.4	140249.2	881668.1	1030945.7	140249.2	890696.5	777426.3	494496.3	282930.0	7920371.5	3812871.7	4107499.8
22.76250	1017728.1	140435.9	877292.3	1026717.8	140435.9	886281.9	771078.1	490806.9	280271.2	7917460.5	3811360.2	4106100.3
22.76750	1013351.1	140622.5	872728.5	1022302.0	140622.5	881679.4	764527.1	486987.1	277540.0	7914465.4	3809830.2	4104635.2
22.77250	1009726.8	140809.3	868917.5	1018639.0	140809.3	877829.7	758032.6	483249.8	274782.8	7913101.9	3809093.7	4104008.2
22.77750	1006038.9	140996.0	865043.0	1014912.3	140996.0	873916.4	751551.2	479532.0	272019.2	7912460.5	3808699.9	4103760.6
22.78250	1002580.8	141182.6	861398.1	1011415.5	141182.6	870232.8	745228.5	475964.8	269263.7	7912012.8	3808398.7	4103614.1
22.78750	999528.3	141369.4	858158.9	1008324.2	141369.4	866954.9	739355.5	472827.7	266527.8	7912137.4	3808376.5	4103760.9
22.79250	995869.8	141556.1	854313.7	1004627.1	141556.1	863071.0	733301.5	469719.2	263582.2	7912320.1	3808376.1	4103944.0
22.79750	991217.3	141742.8	849474.6	999935.8	141742.8	858193.0	726241.0	465694.4	260546.5	7913141.9	3808699.5	4104442.4
22.80250	986366.5	141929.4	844437.0	995046.2	141929.4	853116.8	718858.5	461437.5	257421.0	7914295.9	3809184.2	4105111.7
22.80750	981745.1	142116.2	839629.0	990386.1	142116.2	848270.0	711873.6	457508.2	254365.4	7917911.6	3810869.3	4107042.4
22.81250	976655.9	142302.8	834353.1	985258.2	142302.8	842955.3	706588.3	454562.5	252025.9	7929056.9	3816153.5	4112903.5
22.81750	970907.9	142489.6	828418.3	979471.4	142489.6	836981.8	701277.9	451649.3	249628.5	7940034.3	3821307.9	4118726.4
22.82250	964859.5	142676.2	822183.2	973384.3	142676.2	830708.0	695060.0	448070.8	246989.3	7942875.1	3822623.4	4120251.7
22.82750	958203.3	142863.0	815340.3	966689.4	142863.0	823826.4	688488.5	444278.4	244210.1	7941767.3	3822036.8	4119730.5
22.83250	950954.7	143049.7	807905.0	959402.0	143049.7	816352.4	681413.2	440207.2	241206.0	7941225.2	3821715.6	4119509.6
22.83750	943660.9	143236.3	800424.5	952069.5	143236.3	808833.1	673938.2	435798.3	238139.9	7942470.4	3822277.3	4120193.1
22.84250	936040.4	143423.1	792617.3	944410.3	143423.1	800987.2	666385.3	431301.2	235084.1	7943756.5	3822865.4	4120891.1
22.84750	928300.9	143609.7	784691.2	936632.0	143609.7	793022.3	659288.0	427190.5	232097.6	7944208.3	3823028.5	4121179.8
22.85250	920120.8	143796.5	776324.3	928413.2	143796.5	784616.7	652368.3	423171.9	229196.4	7944167.4	3822956.2	4121211.2
22.85750	911642.1	143983.1	767658.9	919895.7	143983.1	775912.6	644615.1	418542.5	226072.6	7937461.0	3819653.5	4117807.5
22.86250	902761.3	144169.9	758591.4	910976.2	144169.9	766806.3	636446.3	413691.3	222754.9	7909597.3	3806215.9	4103381.4
22.86750	893776.9	144356.5	749420.4	901953.1	144356.5	757596.6	627530.1	408265.2	219264.9	7880948.2	3792368.0	4088580.2
22.87250	884715.3	144543.2	740172.1	892852.8	144543.2	748309.6	618157.2	402396.0	215761.3	7851537.2	3778153.5	4073383.7
22.87750	875738.6	144730.0	731008.7	883837.4	144730.0	739107.4	608393.3	396003.4	212389.9	7821876.4	3763799.5	4058076.9
22.88250	867181.8	144916.7	722265.1	875241.8	144916.7	730325.1	599157.8	390101.5	209056.3	7798799.5	3752549.8	4046249.7
22.88750	858898.5	145103.4	713795.2	866919.7	145103.4	721816.4	591804.3	386011.5	205792.8	7795693.5	3751105.4	4044588.2
22.89250	851471.8	145290.0	706181.7	859454.3	145290.0	714164.2	584810.0	382047.3	202762.7	7792759.1	3749661.4	4043097.7
22.89750	844589.5	145476.8	699112.8	852533.3	145476.8	707056.5	577222.8	377491.4	199731.4	7775700.3	3741396.7	4034303.6
22.90250	837820.9	145663.4	692157.4	845725.9	145663.4	700062.5	568702.8	372357.3	196345.5	7751463.5	3729717.6	4021745.9
22.90750	830663.8	145850.1	684813.7	838530.1	145850.1	692680.0	559645.4	366917.8	192727.6	7719432.2	3714225.3	4005206.8
22.91250	823970.7	146036.8	677933.9	831798.2	146036.8	685761.4	548951.4	360280.5	188670.9	7665170.8	3688092.1	3977078.6
22.91750	818056.2	146223.6	671832.6	825845.0	146223.6	679621.4	538243.5	353576.5	184667.0	7609826.3	3661511.3	3948315.0
22.92250	812889.5	146410.2	666479.3	820639.6	146410.2	674229.4	528884.4	348081.9	180802.4	7568238.6	3641383.9	3926854.7
22.92750	809909.8	146596.9	663312.9	817621.1	146596.9	671024.2	520002.0	343064.2	176937.8	7532856.2	3624263.6	3908592.5
22.93250	808193.4	146783.7	661409.7	815866.0	146783.7	669082.3	511010.3	338020.0	172990.4	7501424.6	3609092.0	3892332.6
22.93750	806518.6	146970.3	659548.3	814152.5	146970.3	667182.2	501324.4	332670.1	168654.4	7480300.6	3598932.1	3881368.5
22.94250	805357.5	147157.1	658200.5	812952.7	147157.1	665795.6	492222.1	327394.0	164828.1	7460251.4	3589341.0	3870910.3
22.94750	805205.4	147343.7	657861.6	812761.8	147343.7	665418.0	485675.5	324635.0	161040.5	7458601.4	3588435.5	3870165.9
22.95250	805667.1	147530.5	658136.6	813184.8	147530.5	665654.3	480498.0	323133.6	157364.4	7464972.4	3591491.4	3873481.1
22.95750	806698.8	147717.1	658981.7	814177.7	147717.1	666460.6	475337.9	321323.2	154014.7	7470977.6	3594361.2	3876616.4
22.96250	807921.3	147903.8	660017.5	815361.5	147903.8	667457.7	470396.9	319284.9	151112.0	7475607.1	3596554.2	3879052.9
22.96750	809757.4	148090.5	661666.9	817158.9	148090.5	669068.3	465276.9	317068.8	148208.2	7480523.8	3598845.4	3881678.4
22.97250	812111.1	148277.2	663833.9	819473.8	148277.2	671196.6	461010.9	315705.4	145305.5	7491584.1	3604165.1	3887418.9
22.97750	815053.5	148463.9	666589.5	822377.4	148463.9	673913.5	457051.0	314649.4	142401.6	7505822.9	3611073.2	3894749.7
22.98250	819619.6	148650.6	670969.0	826904.8	148650.6	678254.2	453513.0	314014.1	139498.9	7527328.4	3621282.0	3906046.4
22.98750	824997.1	148837.4	676159.8	832243.6	148837.4	683406.3	451638.5	314645.7	136992.8	7570023.2	3641875.5	3928147.6
22.99250	831245.6	149024.0	682221.6	838453.4	149024.0	689429.4	450465.8	315265.6	135200.2	7613100.2	3662572.9	3950527.3
22.99750	836953.9	149210.7	687743.2	844123.0	149210.7	694912.3	449189.2	315781.7	133407.5	7641899.8	3676232.5	3965667.3
