# do not edit -- automatically generated Mon Nov 27 11:40:28 2017 from /susfu/kashyap/solar/ISSI/Capella_O7/binned_18t23.pro
# 
# events in wavelength region [18.00,23.00] Ang
# 
BACKSCAL = 15.6250
#columns are:
#WLOW: wavelength grid bin lower bound [Angstrom]
#WHIGH: wavelength grid bin upper bound [Angstrom]
#SRCCT: counts in bin [ct]
#BKGCT: background counts in bin [ct]
#EA{p|n}_OBSID: effective area for each ObsID [cm^2 ksec]
WLOW	WHIGH	SRCCT	BKGCT	EAn_00055	EAn_01225	EAn_08319	EAn_18358	EAn_18360	EAn_18362
N	N	N	N	N	N	N	N	N
18.0000	18.0050	6	2	679.95554	80.468448	281.73722	7.8631974	8.0611423	7.7175185
18.0050	18.0100	3	1	679.72629	80.439044	284.34676	8.1412514	8.3426926	7.9899936
18.0100	18.0150	6	2	679.95210	80.461820	288.98055	8.6588871	8.8665906	8.4973450
18.0150	18.0200	3	1	680.17783	80.484587	293.61257	9.1763255	9.3902888	9.0045030
18.0200	18.0250	2	0	680.76321	80.549342	300.01980	9.8497910	10.070935	9.6644550
18.0250	18.0300	5	1	681.48853	80.630433	307.11913	10.584128	10.812814	10.384018
18.0300	18.0350	2	0	682.18007	80.707626	313.82205	11.329554	11.565533	11.114395
18.0350	18.0400	5	0	682.75195	80.771008	319.12145	12.113883	12.356276	11.882713
18.0400	18.0450	2	0	683.32384	80.834389	324.42086	12.898213	13.147018	12.651031
18.0450	18.0500	4	2	683.39497	80.839575	328.88902	13.539349	13.792666	13.278956
18.0500	18.0550	6	0	683.27148	80.822145	333.03182	14.124505	14.381591	13.851995
18.0550	18.0600	2	2	683.10233	80.799586	336.44243	14.660124	14.920551	14.376475
18.0600	18.0650	6	0	682.77123	80.758833	337.25844	15.020322	15.282569	14.728991
18.0650	18.0700	4	2	682.44012	80.718081	338.07445	15.380519	15.644586	15.081507
18.0700	18.0750	10	0	682.02968	80.668615	337.47297	15.594613	15.859677	15.290934
18.0750	18.0800	12	0	681.58841	80.615762	336.32160	15.752069	16.017810	15.444892
18.0800	18.0850	10	0	681.11953	80.559763	335.10685	15.879246	16.147452	15.571117
18.0850	18.0900	6	3	680.55375	80.492727	333.66999	15.899076	16.176065	15.599004
18.0900	18.0950	15	0	679.98798	80.425691	332.23313	15.918905	16.204678	15.626891
18.0950	18.1000	7	1	679.17602	80.329644	327.47798	15.900248	16.203903	15.626182
18.1000	18.1050	7	1	678.26841	80.222325	321.43258	15.866621	16.191695	15.614347
18.1050	18.1100	5	1	677.34679	80.113374	316.07042	15.811546	16.172278	15.595499
18.1100	18.1150	12	0	676.37427	79.998498	313.12085	15.680432	16.127298	15.551789
18.1150	18.1200	6	2	675.40138	79.883579	310.17016	15.549268	16.082302	15.508062
18.1200	18.1250	12	3	674.72304	79.803493	307.58085	15.415722	16.045043	15.471773
18.1250	18.1300	8	1	674.15953	79.736988	305.13379	15.281353	16.010816	15.438400
18.1300	18.1350	4	0	673.72763	79.686058	303.45469	15.146218	15.977943	15.406322
18.1350	18.1400	5	3	673.76365	79.690496	304.50369	15.008732	15.949961	15.378927
18.1400	18.1450	3	0	673.79965	79.694932	305.55229	14.871298	15.921990	15.351543
18.1450	18.1500	9	1	673.63740	79.675928	307.35053	14.674495	15.888676	15.318993
18.1500	18.1550	2	2	673.39800	79.647801	309.44098	14.454529	15.853272	15.284422
18.1550	18.1600	4	0	673.00084	79.601024	311.36263	14.243182	15.811671	15.243839
18.1600	18.1650	7	0	672.04579	79.488294	312.68644	14.062406	15.748171	15.182008
18.1650	18.1700	6	0	671.09074	79.375564	314.01025	13.881630	15.684671	15.120177
18.1700	18.1750	3	0	670.36952	79.290526	316.03991	13.658500	15.620116	15.057287
18.1750	18.1800	3	0	669.73954	79.216296	318.34282	13.419028	15.555186	14.994017
18.1800	18.1850	2	0	669.19051	79.151563	320.61903	13.211874	15.507604	14.947621
18.1850	18.1900	10	0	668.92854	79.120511	322.80134	13.119335	15.521571	14.961090
18.1900	18.1950	5	1	668.66657	79.089460	324.98365	13.026795	15.535539	14.974558
18.1950	18.2000	7	1	668.19493	79.033828	327.56221	12.903113	15.500031	14.939904
18.2000	18.2050	6	2	667.64180	78.968643	330.29502	12.767319	15.445306	14.886560
18.2050	18.2100	4	0	667.01594	78.894836	333.08954	12.625587	15.393372	14.835956
18.2100	18.2150	6	0	666.13353	78.790614	336.09784	12.463069	15.351415	14.795148
18.2150	18.2200	4	0	665.25113	78.686392	339.10613	12.300551	15.309459	14.754341
18.2200	18.2250	2	0	664.42323	78.588615	341.92833	12.192574	15.268935	14.714903
18.2250	18.2300	6	0	663.61668	78.493361	344.67767	12.105845	15.228974	14.676003
18.2300	18.2350	4	1	662.85858	78.403840	348.22498	12.007571	15.190179	14.638228
18.2350	18.2400	4	0	662.27118	78.334511	354.60517	11.868248	15.155460	14.604383
18.2400	18.2450	2	3	661.68356	78.265156	360.98779	11.728872	15.120729	14.570525
18.2450	18.2500	4	1	661.09750	78.195984	365.72325	11.676500	15.086174	14.536837
18.2500	18.2550	2	0	660.51248	78.126935	369.81513	11.657972	15.051716	14.503241
18.2550	18.2600	3	2	659.92722	78.057861	373.75800	11.643062	15.014846	14.469671
18.2600	18.2650	2	1	659.34263	77.988888	377.16103	11.641042	14.969514	14.436288
18.2650	18.2700	4	0	658.75826	77.919941	380.56276	11.639022	14.924200	14.402917
18.2700	18.2750	1	1	658.17449	77.851046	381.63382	11.632053	14.864574	14.369700
18.2750	18.2800	6	1	657.59073	77.782144	381.79818	11.623155	14.799355	14.336530
18.2800	18.2850	7	2	657.02759	77.715683	381.82145	11.639344	14.711143	14.303854
18.2850	18.2900	2	0	656.53772	77.657890	381.34503	11.744370	14.541534	14.272939
18.2900	18.2950	2	2	656.04785	77.600096	380.86860	11.849396	14.371926	14.242024
18.2950	18.3000	5	0	655.56205	77.542776	380.43263	11.893042	14.218543	14.211798
18.3000	18.3050	1	0	655.07809	77.485669	380.01263	11.912772	14.071558	14.181855
18.3050	18.3100	3	1	654.59431	77.428585	379.59169	11.946324	13.905200	14.152120
18.3100	18.3150	5	0	654.11095	77.371556	379.16724	12.029002	13.669945	14.123112
18.3150	18.3200	3	0	653.62758	77.314527	378.74279	12.111681	13.434690	14.094103
18.3200	18.3250	7	1	653.14494	77.257567	378.31930	12.127305	13.218046	14.065127
18.3250	18.3300	10	3	652.66250	77.200626	377.89611	12.116869	13.008605	14.036160
18.3300	18.3350	2	1	652.18042	77.143723	377.47842	12.104195	12.810207	14.007228
18.3350	18.3400	5	0	651.70045	77.087055	377.08100	12.083602	12.651335	13.978471
18.3400	18.3450	5	0	651.22049	77.030387	376.68357	12.063009	12.492463	13.949714
18.3450	18.3500	5	1	650.58915	76.955839	376.18298	12.109004	12.344986	13.912838
18.3500	18.3550	4	0	649.89890	76.874335	375.64225	12.180947	12.201972	13.872802
18.3550	18.3600	4	2	649.19439	76.791147	375.09802	12.223310	12.065256	13.808185
18.3600	18.3650	3	1	648.43833	76.701873	374.54063	12.160766	11.950697	13.656255
18.3650	18.3700	5	1	647.68199	76.612566	373.98303	12.098199	11.836094	13.504268
18.3700	18.3750	2	0	646.92641	76.523337	373.41253	12.129884	11.701603	13.240073
18.3750	18.3800	6	0	646.17171	76.434207	372.83746	12.198175	11.559484	12.932472
18.3800	18.3850	4	2	645.41669	76.345038	372.26235	12.240756	11.421415	12.647170
18.3850	18.3900	7	1	644.66259	76.255976	371.68873	12.191833	11.298113	12.441906
18.3900	18.3950	2	0	643.90878	76.166947	371.11533	12.142929	11.174859	12.236721
18.3950	18.4000	4	2	643.12812	76.074747	370.54055	12.115477	11.057953	12.037409
18.4000	18.4050	7	0	642.33670	75.981276	369.96503	12.096372	10.943476	11.840309
18.4050	18.4100	4	0	641.57694	75.891548	369.40405	12.085442	10.836222	11.656584
18.4100	18.4150	4	0	640.92971	75.815126	368.89482	12.103497	10.754617	11.520346
18.4150	18.4200	6	3	640.28248	75.738704	368.38560	12.121551	10.673012	11.384108
18.4200	18.4250	7	0	639.72967	75.673454	367.93887	12.082453	10.693390	11.266895
18.4250	18.4300	3	0	639.21394	75.612589	367.51672	12.021117	10.753475	11.157154
18.4300	18.4350	5	1	638.69839	75.551747	367.09256	11.976644	10.798977	11.047636
18.4350	18.4400	3	0	638.18332	75.490965	366.66107	11.992105	10.792649	10.938871
18.4400	18.4450	5	0	637.66824	75.430183	366.22958	12.007566	10.786321	10.830106
18.4450	18.4500	6	1	637.16641	75.370962	365.80639	11.974933	10.848601	10.730046
18.4500	18.4550	4	0	636.66966	75.312339	365.38636	11.923584	10.937582	10.633359
18.4550	18.4600	7	1	636.17660	75.254153	364.96839	11.886029	11.027210	10.535956
18.4600	18.4650	4	0	635.69750	75.197620	364.55842	11.897539	11.118984	10.436186
18.4650	18.4700	7	1	635.21840	75.141086	364.14846	11.909049	11.210758	10.336415
18.4700	18.4750	5	1	634.62898	75.071489	363.67535	11.911959	11.269838	10.239849
18.4750	18.4800	14	0	633.99660	74.996806	363.17769	11.911514	11.316155	10.144547
18.4800	18.4850	7	2	633.35061	74.920510	362.67248	11.898314	11.360890	10.056961
18.4850	18.4900	15	1	632.65533	74.838384	362.13977	11.839783	11.400069	9.9966667
18.4900	18.4950	14	0	631.95979	74.756226	361.60686	11.781230	11.439264	9.9363497
18.4950	18.5000	12	0	631.26466	74.674134	361.07562	11.775890	11.437297	9.9220067
18.5000	18.5050	13	0	630.57023	74.592130	360.54544	11.791269	11.419307	9.9255727
18.5050	18.5100	11	3	629.87482	74.510010	360.01502	11.789031	11.409375	9.9674058
18.5100	18.5150	9	0	629.17786	74.427702	359.48516	11.724087	11.428151	10.145345
18.5150	18.5200	9	0	628.48116	74.345426	358.95551	11.659167	11.446920	10.323216
18.5200	18.5250	11	0	627.85119	74.271052	358.46473	11.657752	11.467594	10.414574
18.5250	18.5300	4	1	627.24703	74.199733	357.98893	11.681110	11.489019	10.472218
18.5300	18.5350	6	1	626.69265	74.134302	357.54170	11.690598	11.509622	10.540003
18.5350	18.5400	7	0	626.31540	74.089817	357.19614	11.650809	11.527295	10.643790
18.5400	18.5450	3	1	625.93814	74.045332	356.85059	11.611020	11.544967	10.747577
18.5450	18.5500	4	2	625.54590	73.999072	356.49693	11.587729	11.558320	10.797223
18.5500	18.5550	4	1	625.14801	73.952145	356.14030	11.570888	11.569980	10.825718
18.5550	18.5600	6	0	624.68807	73.897878	355.74851	11.561102	11.570941	10.845354
18.5600	18.5650	4	0	624.00694	73.817444	355.23133	11.576445	11.533793	10.833439
18.5650	18.5700	2	1	623.32582	73.737009	354.71416	11.591787	11.496644	10.821523
18.5700	18.5750	5	2	622.64439	73.656537	354.19766	11.550804	11.496716	10.826664
18.5750	18.5800	6	1	621.96274	73.576039	353.68133	11.487878	11.511284	10.838448
18.5800	18.5850	9	1	621.28108	73.495540	353.16516	11.443333	11.521049	10.842206
18.5850	18.5900	7	2	620.60056	73.415182	352.65039	11.464239	11.513713	10.817414
18.5900	18.5950	6	0	619.92004	73.334823	352.13562	11.485144	11.506378	10.792623
18.5950	18.6000	11	1	619.23999	73.254517	351.62156	11.448187	11.496193	10.785523
18.6000	18.6050	14	1	618.56022	73.174243	351.10786	11.388630	11.484896	10.785336
18.6050	18.6100	11	2	617.87815	73.093699	350.59300	11.338076	11.473083	10.782502
18.6100	18.6150	12	0	617.18696	73.012082	350.07335	11.319462	11.459417	10.770252
18.6150	18.6200	19	2	616.49551	72.930434	349.55351	11.300840	11.445746	10.757997
18.6200	18.6250	11	1	615.76762	72.844449	349.01353	11.297535	11.401070	10.727021
18.6250	18.6300	22	3	615.02611	72.756840	348.46612	11.300197	11.344353	10.688777
18.6300	18.6350	20	0	614.28424	72.669194	347.91870	11.291099	11.299996	10.660085
18.6350	18.6400	18	1	613.54314	72.581656	347.37272	11.240087	11.299838	10.665530
18.6400	18.6450	12	2	612.80231	72.494152	346.82694	11.189094	11.299680	10.670973
18.6450	18.6500	20	1	612.06233	72.406756	346.28236	11.177303	11.290617	10.661534
18.6500	18.6550	7	1	611.32239	72.319369	345.73804	11.180822	11.278071	10.646276
18.6550	18.6600	8	2	610.58768	72.232598	345.19693	11.164256	11.261086	10.630050
18.6600	18.6650	9	0	609.87189	72.148052	344.66746	11.076263	11.228315	10.610385
18.6650	18.6700	12	0	609.15610	72.063507	344.13798	10.988270	11.195544	10.590720
18.6700	18.6750	6	1	608.54485	71.991331	343.66810	10.979860	11.168192	10.579989
18.6750	18.6800	12	0	607.97475	71.924025	343.22175	11.002537	11.142971	10.572752
18.6800	18.6850	9	0	607.40458	71.856712	342.77557	11.013156	11.117928	10.560377
18.6850	18.6900	8	0	606.83395	71.789344	342.32983	10.980794	11.093510	10.529677
18.6900	18.6950	10	2	606.26333	71.721977	341.88409	10.948432	11.069091	10.498978
18.6950	18.7000	12	4	605.69359	71.654711	341.43291	10.899535	11.059877	10.498460
18.7000	18.7050	2	1	605.12411	71.587474	340.97954	10.844186	11.056589	10.509707
18.7050	18.7100	9	2	604.55463	71.520238	340.52420	10.798030	11.039621	10.508094
18.7100	18.7150	7	0	603.98615	71.453121	340.06266	10.784710	10.973942	10.460663
18.7150	18.7200	1	1	603.41767	71.386003	339.60111	10.771391	10.908263	10.413233
18.7200	18.7250	4	1	602.85139	71.319142	339.14172	10.739313	10.897751	10.414129
18.7250	18.7300	5	1	602.28605	71.252390	338.68324	10.699906	10.908815	10.433923
18.7300	18.7350	3	0	601.72324	71.185940	338.22644	10.671306	10.913425	10.441388
18.7350	18.7400	4	1	601.16869	71.120477	337.77500	10.681142	10.895069	10.404974
18.7400	18.7450	5	1	600.61393	71.054989	337.32340	10.690982	10.876706	10.368545
18.7450	18.7500	5	2	599.99344	70.981730	336.83598	10.639938	10.835083	10.351873
18.7500	18.7550	2	0	599.34777	70.905496	336.33496	10.565183	10.784419	10.342920
18.7550	18.7600	7	0	598.66544	70.824917	335.81355	10.497735	10.743974	10.331973
18.7600	18.7650	3	1	597.85409	70.729048	335.22073	10.456553	10.740115	10.313939
18.7650	18.7700	6	0	597.04306	70.633216	334.62814	10.415386	10.736257	10.295911
18.7700	18.7750	5	2	596.13103	70.537487	334.03680	10.409142	10.711935	10.263993
18.7750	18.7800	3	0	595.17917	70.441762	333.44573	10.416548	10.679604	10.226633
18.7800	18.7850	3	0	593.87094	70.352411	332.88498	10.408814	10.652783	10.195270
18.7850	18.7900	4	2	591.29532	70.285771	332.43235	10.347218	10.645578	10.185261
18.7900	18.7950	5	0	588.71970	70.219131	331.97971	10.285623	10.638372	10.175251
18.7950	18.8000	9	2	583.89273	70.162354	331.58052	10.293064	10.605054	10.155806
18.8000	18.8050	8	1	578.18880	70.109460	331.20241	10.327470	10.561551	10.132686
18.8050	18.8100	7	0	572.30582	70.055822	330.81359	10.335843	10.528165	10.108599
18.8100	18.8150	4	0	565.78111	69.999503	330.38633	10.251229	10.530899	10.081053
18.8150	18.8200	6	1	559.25639	69.943184	329.95907	10.166615	10.533634	10.053507
18.8200	18.8250	6	0	551.85532	69.756314	329.12240	10.134919	10.517084	10.043055
18.8250	18.8300	7	1	544.11092	69.518433	328.12573	10.123882	10.493002	10.039277
18.8300	18.8350	5	0	536.61787	69.173061	326.56505	10.113649	10.466391	10.027451
18.8350	18.8400	4	0	530.03432	68.444919	322.99559	10.106302	10.430813	9.9869366
18.8400	18.8450	2	0	523.45077	67.716778	319.42612	10.098956	10.395234	9.9464225
18.8450	18.8500	3	1	516.87218	66.609719	315.55132	10.067834	10.391107	9.9379452
18.8500	18.8550	1	2	510.29652	65.354462	311.55756	10.027409	10.399295	9.9420131
18.8550	18.8600	10	0	504.08376	64.109129	307.23770	9.9903715	10.395428	9.9339431
18.8600	18.8650	5	0	499.15641	62.897487	301.74938	9.9653612	10.348576	9.8825877
18.8650	18.8700	3	0	494.22718	61.685383	296.25897	9.9403413	10.301706	9.8312126
18.8700	18.8750	6	0	491.79073	60.838731	291.49429	9.8954906	10.263346	9.8117184
18.8750	18.8800	3	2	490.32951	60.135426	287.01662	9.8429308	10.228338	9.8046879
18.8800	18.8850	5	2	489.54049	59.463131	282.84749	9.8005707	10.198651	9.7926461
18.8850	18.8900	9	1	491.15673	58.903532	279.79270	9.7947902	10.188070	9.7627218
18.8900	18.8950	8	2	492.77235	58.344146	276.73909	9.7890119	10.177493	9.7328089
18.8950	18.9000	12	4	494.28483	57.852770	273.34529	9.7538138	10.140847	9.6962547
18.9000	18.9050	13	2	495.75752	57.387823	269.81705	9.7070879	10.093985	9.6570874
18.9050	18.9100	14	2	497.69714	56.994170	266.61101	9.6574642	10.054025	9.6245700
18.9100	18.9150	24	1	501.30026	56.854763	264.55454	9.5975312	10.038683	9.6157666
18.9150	18.9200	30	1	504.90339	56.715357	262.49807	9.5375981	10.023341	9.6069632
18.9200	18.9250	35	1	508.17781	57.235595	260.05068	9.5205466	9.9771963	9.5741098
18.9250	18.9300	48	10	511.32187	58.013680	257.45163	9.5202839	9.9190235	9.5318630
18.9300	18.9350	68	4	514.24011	58.723824	254.97580	9.5008216	9.8751400	9.4968976
18.9350	18.9400	79	4	516.35155	59.191170	252.93990	9.4126613	9.8823626	9.4879696
18.9400	18.9450	103	5	518.46299	59.658516	250.90401	9.3245009	9.8895852	9.4790415
18.9450	18.9500	140	4	519.94472	59.993556	249.10298	9.3106033	9.8578903	9.4582355
18.9500	18.9550	180	7	521.18056	60.276935	247.39349	9.3257285	9.8109802	9.4327840
18.9550	18.9600	204	8	522.17315	60.577981	245.68772	9.3181091	9.7694214	9.4093616
18.9600	18.9650	225	16	522.29570	60.941575	243.99822	9.2293085	9.7470387	9.3932237
18.9650	18.9700	235	12	522.41824	61.305168	242.30873	9.1405078	9.7246559	9.3770858
18.9700	18.9750	215	9	522.41699	61.467410	242.61194	9.0762802	9.7010395	9.3501026
18.9750	18.9800	230	19	522.36724	61.550754	243.69568	9.0216878	9.6769434	9.3188750
18.9800	18.9850	181	13	522.52231	61.610688	244.84790	8.9747584	9.6464415	9.2899847
18.9850	18.9900	129	8	523.40830	61.587179	246.24596	8.9551045	9.5930441	9.2693936
18.9900	18.9950	113	5	524.29464	61.563662	247.64455	8.9354431	9.5396263	9.2487947
18.9950	19.0000	72	10	524.89336	61.638841	250.49607	8.8375665	9.5209553	9.2351659
19.0000	19.0050	46	3	525.37927	61.752517	253.91298	8.7092105	9.5158719	9.2242704
19.0050	19.0100	40	2	525.71910	61.836112	257.05578	8.5999207	9.5038772	9.2081279
19.0100	19.0150	40	3	525.53580	61.811950	259.21011	8.5590846	9.4672090	9.1732728
19.0150	19.0200	35	4	525.35256	61.787798	261.36363	8.5182640	9.4305549	9.1384310
19.0200	19.0250	24	2	524.73073	61.782809	262.20812	8.4040603	9.3882870	9.1058970
19.0250	19.0300	18	2	523.93685	61.785325	262.54019	8.2610686	9.3438040	9.0742545
19.0300	19.0350	11	3	523.29333	61.763095	263.01282	8.1404622	9.3029864	9.0456368
19.0350	19.0400	10	1	523.18683	61.652526	263.98715	8.0998195	9.2752702	9.0278293
19.0400	19.0450	7	0	523.08034	61.541958	264.96147	8.0591768	9.2475539	9.0100217
19.0450	19.0500	14	0	522.76499	61.547803	265.10732	8.0364474	9.2076939	8.9821907
19.0500	19.0550	13	2	522.36801	61.599236	264.92865	8.0207453	9.1630995	8.9504491
19.0550	19.0600	7	0	522.07973	61.646840	264.97662	8.0000039	9.1272567	8.9238230
19.0600	19.0650	13	2	522.18018	61.680771	265.83538	7.9612281	9.1227071	8.9154857
19.0650	19.0700	9	2	522.28063	61.714702	266.69414	7.9224524	9.1181575	8.9071485
19.0700	19.0750	7	3	522.30051	61.724195	266.93962	7.9451995	9.0823456	8.8718999
19.0750	19.0800	2	1	522.28888	61.724134	266.94535	7.9920040	9.0343058	8.8261245
19.0800	19.0850	7	1	522.22231	61.728585	266.95969	8.0272089	8.9916246	8.7878867
19.0850	19.0900	8	1	521.95957	61.749146	267.00477	8.0209193	8.9681591	8.7766397
19.0900	19.0950	3	2	521.69683	61.769707	267.04985	8.0146297	8.9446936	8.7653928
19.0950	19.1000	4	3	521.64950	61.843737	267.28075	8.0589025	8.9128696	8.7280731
19.1000	19.1050	5	0	521.68666	61.938724	267.58448	8.1229981	8.8777723	8.6805338
19.1050	19.1100	4	1	521.60710	61.995864	267.68508	8.1836412	8.8431207	8.6388927
19.1100	19.1150	2	0	521.11030	61.917800	267.05980	8.2320273	8.8100150	8.6182768
19.1150	19.1200	3	1	520.61331	61.839706	266.43429	8.2804318	8.7768967	8.5976530
19.1200	19.1250	4	0	520.28800	61.864738	266.67312	8.3168676	8.7548249	8.5764580
19.1250	19.1300	1	0	520.03011	61.930100	267.24995	8.3485927	8.7370921	8.5550557
19.1300	19.1350	5	0	519.73744	61.924159	267.61408	8.3995829	8.7066974	8.5284862
19.1350	19.1400	2	0	519.32091	61.662683	267.21484	8.5194804	8.6310052	8.4834702
19.1400	19.1450	2	3	518.90453	61.401307	266.81575	8.6393322	8.5553420	8.4384713
19.1450	19.1500	1	0	518.40955	61.348000	266.47294	8.7043191	8.5213074	8.4024099
19.1500	19.1550	4	1	517.88353	61.376306	266.15208	8.7478053	8.5035923	8.3698412
19.1550	19.1600	2	0	517.49467	61.372264	265.89349	8.8083619	8.4738206	8.3357211
19.1600	19.1650	3	2	517.59607	61.252642	265.85749	8.9298892	8.4009809	8.2960709
19.1650	19.1700	3	1	517.69746	61.133019	265.82148	9.0514164	8.3281413	8.2564207
19.1700	19.1750	4	1	517.21220	61.037604	265.56520	9.1181846	8.2466369	8.2036739
19.1750	19.1800	3	0	516.49719	60.951731	265.22268	9.1634466	8.1617783	8.1458201
19.1800	19.1850	9	1	515.78940	60.871537	264.97191	9.2043236	8.0759752	8.0951348
19.1850	19.1900	2	1	515.10726	60.811680	265.05011	9.2294880	7.9867510	8.0701428
19.1900	19.1950	6	0	514.42512	60.751823	265.12832	9.2546524	7.8975268	8.0451507
19.1950	19.2000	4	0	513.99367	60.682334	264.80462	9.2849447	7.7970502	7.9929075
19.2000	19.2050	1	2	513.66038	60.609060	264.32340	9.3172508	7.6921498	7.9299791
19.2050	19.2100	2	1	513.34126	60.552322	263.91056	9.3418740	7.5979099	7.8748792
19.2100	19.2150	4	1	513.07345	60.554865	263.74318	9.3389564	7.5419900	7.8478944
19.2150	19.2200	6	1	512.80563	60.557408	263.57580	9.3360387	7.4860700	7.8209097
19.2200	19.2250	4	1	512.30175	60.532892	263.25952	9.3334757	7.4613634	7.7566582
19.2250	19.2300	4	1	511.70527	60.497757	262.88483	9.3310523	7.4489132	7.6777874
19.2300	19.2350	2	1	511.13872	60.443744	262.50467	9.3241316	7.4389920	7.6007999
19.2350	19.2400	3	2	510.67846	60.322127	262.10440	9.3011131	7.4381045	7.5304446
19.2400	19.2450	5	0	510.21803	60.200463	261.70397	9.2780859	7.4372166	7.4600624
19.2450	19.2500	5	1	509.60366	60.169993	261.71263	9.2551184	7.4522474	7.3861012
19.2500	19.2550	1	0	508.92947	60.175264	261.88151	9.2321919	7.4735021	7.3107946
19.2550	19.2600	5	0	508.40628	60.153269	261.88758	9.2092549	7.4963332	7.2330625
19.2600	19.2650	8	0	508.42642	60.033476	261.30932	9.1863426	7.5247595	7.1468385
19.2650	19.2700	6	0	508.44655	59.913729	260.73129	9.1634391	7.5531750	7.0606475
19.2700	19.2750	3	0	507.66571	59.923344	260.25907	9.1405893	7.6004615	6.9636649
19.2750	19.2800	3	0	506.57005	59.983759	259.82823	9.1177519	7.6551761	6.8624077
19.2800	19.2850	2	3	505.53729	59.996754	259.43811	9.0949445	7.7048108	6.7841785
19.2850	19.2900	3	0	504.72996	59.840079	259.19385	9.0722532	7.7362508	6.7883707
19.2900	19.2950	2	0	503.92262	59.683404	258.94960	9.0495619	7.7676908	6.7925629
19.2950	19.3000	4	1	503.24246	59.630774	258.67800	9.0269547	7.8241015	6.8030375
19.3000	19.3050	2	0	502.61258	59.619012	258.39582	9.0043924	7.8902841	6.8159725
19.3050	19.3100	3	1	502.03275	59.602231	258.11421	8.9818947	7.9591923	6.8359576
19.3100	19.3150	4	0	501.63239	59.567417	257.83456	8.9596203	8.0379122	6.8812616
19.3150	19.3200	0	1	501.23202	59.532604	257.55491	8.9373458	8.1166322	6.9265656
19.3200	19.3250	2	1	501.07720	59.486676	257.14531	8.9159578	8.2032498	6.9576439
19.3250	19.3300	3	0	501.01866	59.436381	256.68468	8.8949143	8.2929778	6.9831475
19.3300	19.3350	3	0	500.81891	59.369826	256.26316	8.8740667	8.3833993	7.0146450
19.3350	19.3400	1	0	500.11360	59.245129	255.98253	8.8539580	8.4761477	7.0675641
19.3400	19.3450	4	0	499.40829	59.120431	255.70189	8.8338492	8.5688961	7.1204831
19.3450	19.3500	4	1	498.75336	59.102896	255.53391	8.8138014	8.6467460	7.1615663
19.3500	19.3550	3	0	498.11830	59.127450	255.41020	8.7937805	8.7187329	7.1979948
19.3550	19.3600	3	2	497.53350	59.093576	255.20641	8.7737985	8.7784255	7.2387904
19.3600	19.3650	2	0	497.12782	58.850465	254.71562	8.7539286	8.7941824	7.2952771
19.3650	19.3700	7	2	496.72198	58.607262	254.22465	8.7340511	8.8099454	7.3517853
19.3700	19.3750	7	1	496.47061	58.617016	253.87757	8.7141691	8.8198382	7.4267744
19.3750	19.3800	1	0	496.27998	58.725897	253.58715	8.6943006	8.8274230	7.5089490
19.3800	19.3850	4	2	495.99483	58.797024	253.25810	8.6744340	8.8303247	7.5912810
19.3850	19.3900	3	1	495.37123	58.732451	252.79129	8.6546289	8.8164104	7.6739527
19.3900	19.3950	4	1	494.74786	58.667903	252.32466	8.6348314	8.8025013	7.7565930
19.3950	19.4000	4	0	493.83004	58.560090	251.98190	8.6124836	8.7815554	7.8284622
19.4000	19.4050	4	0	492.79621	58.435244	251.68768	8.5891256	8.7578378	7.8961284
19.4050	19.4100	0	2	491.92107	58.324444	251.36311	8.5655109	8.7338589	7.9717345
19.4100	19.4150	5	0	491.61405	58.263949	250.93010	8.5409866	8.7089543	8.0757211
19.4150	19.4200	1	0	491.30703	58.203453	250.49708	8.5164624	8.6840497	8.1797077
19.4200	19.4250	1	0	490.51494	58.041714	249.85007	8.4919984	8.6592015	8.2046072
19.4250	19.4300	1	1	489.53279	57.840303	249.11936	8.4675712	8.6343885	8.1984361
19.4300	19.4350	4	0	488.58437	57.679164	248.48549	8.4444719	8.6109392	8.1948511
19.4350	19.4400	3	1	487.75681	57.662636	248.19926	8.4261344	8.5923797	8.2005549
19.4400	19.4450	1	1	486.92925	57.646109	247.91302	8.4077969	8.5738203	8.2062587
19.4450	19.4500	1	0	486.57677	57.611882	247.69166	8.3903363	8.5561351	8.1957722
19.4500	19.4550	0	0	486.41063	57.570707	247.49571	8.3732171	8.5387903	8.1789322
19.4550	19.4600	3	0	486.09888	57.516156	247.26148	8.3561134	8.5214558	8.1621066
19.4600	19.4650	3	0	485.26501	57.413690	246.89021	8.3390951	8.5041890	8.1453625
19.4650	19.4700	4	0	484.43114	57.311224	246.51894	8.3220768	8.4869222	8.1286183
19.4700	19.4750	4	0	484.19533	57.210656	246.04250	8.3051247	8.4697240	8.1119338
19.4750	19.4800	4	1	484.19482	57.110849	245.52475	8.2882011	8.4525553	8.0952752
19.4800	19.4850	1	0	484.07791	57.002661	245.03913	8.2713054	8.4354148	8.0786450
19.4850	19.4900	1	0	483.54344	56.864269	244.66799	8.2544864	8.4183515	8.0620938
19.4900	19.4950	3	0	483.00876	56.725825	244.29672	8.2376610	8.4012818	8.0455364
19.4950	19.5000	2	1	482.15670	56.718598	244.03422	8.2179807	8.3813034	8.0261928
19.5000	19.5050	5	0	481.18070	56.762888	243.81463	8.1971947	8.3601984	8.0057702
19.5050	19.5100	3	0	480.24104	56.779613	243.48886	8.1763238	8.3389994	7.9852595
19.5100	19.5150	3	0	479.43470	56.697154	242.78213	8.1552049	8.3175204	7.9644883
19.5150	19.5200	4	0	478.62866	56.614726	242.07567	8.1340940	8.2960496	7.9437250
19.5200	19.5250	6	1	477.64433	56.486293	241.65515	8.1130633	8.2746817	7.9230687
19.5250	19.5300	8	1	476.58949	56.339716	241.34694	8.0920561	8.2533461	7.9024465
19.5300	19.5350	4	0	475.65847	56.227441	240.93455	8.0710152	8.2319690	7.8817830
19.5350	19.5400	7	0	475.17172	56.238198	240.14879	8.0498615	8.2104512	7.8609791
19.5400	19.5450	2	0	474.68497	56.248955	239.36303	8.0287079	8.1889334	7.8401753
19.5450	19.5500	6	0	473.84892	56.207222	238.75664	8.0073867	8.1672610	7.8192266
19.5500	19.5550	4	1	472.87590	56.144864	238.22114	7.9860110	8.1455392	7.7982321
19.5550	19.5600	3	0	471.83398	56.030898	237.66715	7.9646237	8.1238073	7.7772271
19.5600	19.5650	2	0	470.54370	55.731170	237.04641	7.9431862	8.1020303	7.7561764
19.5650	19.5700	6	1	469.25342	55.431443	236.42567	7.9217488	8.0802532	7.7351257
19.5700	19.5750	5	0	468.24820	55.332782	235.86002	7.9004251	8.0586006	7.7141838
19.5750	19.5800	1	0	467.35487	55.313130	235.31594	7.8791428	8.0369937	7.6932814
19.5800	19.5850	5	1	466.41383	55.280371	234.79512	7.8578831	8.0154071	7.6724088
19.5850	19.5900	5	0	465.30299	55.200568	234.35879	7.8367419	7.9939315	7.6516801
19.5900	19.5950	6	1	464.19215	55.120766	233.92246	7.8156006	7.9724560	7.6309513
19.5950	19.6000	7	2	463.01235	55.051277	233.11194	7.7946787	7.9512046	7.6104314
19.6000	19.6050	5	0	461.80556	54.985862	232.15415	7.7738463	7.9300447	7.5899969
19.6050	19.6100	3	0	460.68447	54.888335	231.29471	7.7537082	7.9095883	7.5702309
19.6100	19.6150	4	0	459.86980	54.675283	230.78753	7.7360372	7.8916320	7.5528404
19.6150	19.6200	3	1	459.05482	54.462149	230.28017	7.7183595	7.8736687	7.5354432
19.6200	19.6250	1	2	457.84100	54.309867	229.71776	7.7026059	7.8576832	7.5199492
19.6250	19.6300	2	1	456.47140	54.181609	229.13416	7.6876203	7.8424868	7.5052146
19.6300	19.6350	3	0	455.17150	54.085780	228.52048	7.6726486	7.8272985	7.4904861
19.6350	19.6400	4	0	454.12603	54.106923	227.80025	7.6577679	7.8121809	7.4758193
19.6400	19.6450	1	1	453.08097	54.128057	227.08029	7.6428929	7.7970690	7.4611582
19.6450	19.6500	3	0	451.42338	54.063720	226.45954	7.6235744	7.7774413	7.4421812
19.6500	19.6550	2	0	449.52403	53.965713	225.87761	7.6024994	7.7560284	7.4214979
19.6550	19.6600	2	0	447.45987	53.857441	225.09925	7.5805405	7.7337159	7.3999560
19.6600	19.6650	1	1	444.80499	53.712371	223.61615	7.5554180	7.7081829	7.3753408
19.6650	19.6700	0	0	442.15011	53.567301	222.13306	7.5302955	7.6826500	7.3507256
19.6700	19.6750	4	1	438.90873	53.388048	221.22445	7.5058138	7.6577611	7.3267242
19.6750	19.6800	0	1	435.43822	53.195435	220.54246	7.4815974	7.6331390	7.3029771
19.6800	19.6850	1	0	431.56947	52.950377	219.66805	7.4592415	7.6104166	7.2810469
19.6850	19.6900	3	1	426.26461	52.516301	218.10015	7.4435789	7.5945290	7.2656532
19.6900	19.6950	4	0	420.95975	52.082225	216.53225	7.4279164	7.5786414	7.2502595
19.6950	19.7000	3	1	417.82997	51.937842	215.16805	7.4113853	7.5618679	7.2340156
19.7000	19.7050	1	1	415.55532	51.907392	213.88378	7.3945101	7.5447435	7.2174350
19.7050	19.7100	4	0	413.53985	51.756548	212.49911	7.3774299	7.5274077	7.2006556
19.7100	19.7150	3	1	412.45993	51.173059	210.75591	7.3596428	7.5093426	7.1831909
19.7150	19.7200	1	0	411.38000	50.589570	209.01271	7.3418557	7.4912775	7.1657263
19.7200	19.7250	3	0	411.07398	49.883082	206.00096	7.3241488	7.4732935	7.1483508
19.7250	19.7300	2	0	411.07287	49.128247	202.48993	7.3064761	7.4553441	7.1310130
19.7300	19.7350	2	1	411.73160	48.446062	199.36383	7.2888420	7.4374308	7.1137071
19.7350	19.7400	1	3	414.76237	48.024014	197.61671	7.2713223	7.4196224	7.0964917
19.7400	19.7450	2	0	417.79430	47.601806	195.86892	7.2537960	7.4018072	7.0792698
19.7450	19.7500	6	0	421.39353	47.561436	194.27456	7.2365509	7.3842904	7.0623338
19.7500	19.7550	3	1	425.21306	47.671216	192.74173	7.2194294	7.3669044	7.0455231
19.7550	19.7600	2	0	429.47611	47.846975	191.70497	7.2023162	7.3495205	7.0287258
19.7600	19.7650	5	0	435.32546	48.259977	192.45843	7.1852799	7.3321922	7.0120228
19.7650	19.7700	6	0	441.17258	48.672821	193.21160	7.1682501	7.3148705	6.9953261
19.7700	19.7750	5	0	447.60863	49.084271	194.18170	7.1508985	7.2972441	6.9782978
19.7750	19.7800	13	0	454.27922	49.495329	195.23765	7.1334134	7.2794911	6.9611324
19.7800	19.7850	7	0	460.40653	49.921037	196.28538	7.1159442	7.2617612	6.9439841
19.7850	19.7900	10	0	464.57985	50.399213	197.30313	7.0985391	7.2441215	6.9269035
19.7900	19.7950	6	0	468.75317	50.877390	198.32088	7.0811340	7.2264818	6.9098229
19.7950	19.8000	3	1	471.81367	51.495557	199.69763	7.0623315	7.2073905	6.8913856
19.8000	19.8050	2	0	474.43403	52.168561	201.21512	7.0429882	7.1877373	6.8724235
19.8050	19.8100	14	0	476.79369	52.903952	202.62201	7.0236062	7.1680552	6.8534209
19.8100	19.8150	10	1	478.21376	53.864689	203.63048	7.0040775	7.1482610	6.8342649
19.8150	19.8200	8	0	479.63383	54.825425	204.63895	6.9845487	7.1284667	6.8151089
19.8200	19.8250	13	1	479.74727	55.470349	206.27565	6.9651328	7.1087414	6.7960706
19.8250	19.8300	9	0	479.34623	55.991016	208.15997	6.9457584	7.0890403	6.7770757
19.8300	19.8350	11	0	478.90401	56.409395	210.01429	6.9264002	7.0693605	6.7580999
19.8350	19.8400	8	0	478.31424	56.458619	211.75725	6.9071349	7.0497923	6.7392256
19.8400	19.8450	4	0	477.72447	56.507843	213.50021	6.8878695	7.0302240	6.7203514
19.8450	19.8500	6	2	477.11896	56.469944	215.51035	6.8686990	7.0107466	6.7015576
19.8500	19.8550	3	0	476.50735	56.397676	217.62561	6.8495687	6.9913080	6.6827983
19.8550	19.8600	6	1	475.91145	56.327268	220.06712	6.8306891	6.9721285	6.6642884
19.8600	19.8650	5	0	475.37132	56.263456	223.68629	6.8126853	6.9538558	6.6466504
19.8650	19.8700	2	1	474.83098	56.199620	227.30684	6.7946747	6.9355761	6.6290057
19.8700	19.8750	2	1	474.28205	56.134763	230.00766	6.7766280	6.9172515	6.6113197
19.8750	19.8800	3	0	473.73016	56.069555	232.34451	6.7585810	6.8989232	6.5936311
19.8800	19.8850	0	2	473.17791	56.004306	234.64825	6.7405454	6.8806054	6.5759516
19.8850	19.8900	1	0	472.62588	55.939093	236.82614	6.7226007	6.8623757	6.5583542
19.8900	19.8950	8	0	472.07407	55.873904	239.00321	6.7046630	6.8441530	6.5407635
19.8950	19.9000	4	0	471.52286	55.808781	239.58505	6.6869614	6.8261958	6.5234046
19.9000	19.9050	5	0	470.97169	55.743659	239.53735	6.6693463	6.8083365	6.5061305
19.9050	19.9100	4	1	470.42651	55.679247	239.41974	6.6518821	6.7906278	6.4890047
19.9100	19.9150	1	0	469.90306	55.617413	239.05059	6.6349680	6.7734676	6.4724193
19.9150	19.9200	6	0	469.37962	55.555579	238.68145	6.6180538	6.7563073	6.4558338
19.9200	19.9250	2	0	468.89014	55.497765	238.34544	6.6017017	6.7396980	6.4397920
19.9250	19.9300	0	0	468.41432	55.441566	238.02269	6.5855798	6.7233148	6.4239731
19.9300	19.9350	1	0	467.94077	55.385636	237.69798	6.5695044	6.7069822	6.4082029
19.9350	19.9400	3	0	467.47523	55.330653	237.36607	6.5535906	6.6908263	6.3926022
19.9400	19.9450	5	0	467.00970	55.275669	237.03417	6.5376768	6.6746704	6.3770015
19.9450	19.9500	2	0	466.54637	55.220929	236.70380	6.5218646	6.6586142	6.3614936
19.9500	19.9550	4	0	466.08384	55.166275	236.37398	6.5060901	6.6425949	6.3460199
19.9550	19.9600	3	1	465.62124	55.111614	236.04748	6.4903287	6.6265901	6.3305613
19.9600	19.9650	4	0	465.15919	55.057021	235.73345	6.4746424	6.6106653	6.3151846
19.9650	19.9700	4	0	464.69714	55.002428	235.41943	6.4589561	6.5947406	6.2998079
19.9700	19.9750	4	0	464.21437	54.945429	235.08481	6.4430516	6.5785741	6.2842386
19.9750	19.9800	1	0	463.72350	54.887489	234.74212	6.4270634	6.5623145	6.2685955
19.9800	19.9850	3	0	463.21133	54.827017	234.39149	6.4108068	6.5457822	6.2526817
19.9850	19.9900	3	0	462.62170	54.757339	234.01183	6.3935611	6.5282446	6.2357707
19.9900	19.9950	3	0	462.03186	54.687635	233.63203	6.3763088	6.5107003	6.2188532
19.9950	20.0000	4	0	461.44307	54.618059	233.24488	6.3591572	6.4932486	6.2020372
20.0000	20.0050	1	0	460.85516	54.548587	232.85514	6.3420582	6.4758467	6.1852739
20.0050	20.0100	1	0	460.26869	54.479286	232.46622	6.3249642	6.4584553	6.1685184
20.0100	20.0150	1	0	459.68906	54.410792	232.08138	6.3079353	6.4411500	6.1518371
20.0150	20.0200	1	0	459.10966	54.342324	231.69667	6.2909128	6.4238514	6.1351621
20.0200	20.0250	4	0	458.56783	54.278301	231.33944	6.2744436	6.4071070	6.1190158
20.0250	20.0300	1	1	458.04063	54.216010	230.99291	6.2581867	6.3905752	6.1030721
20.0300	20.0350	3	0	457.51360	54.153738	230.64412	6.2419506	6.3740673	6.0871492
20.0350	20.0400	1	0	456.98734	54.091562	230.28735	6.2257958	6.3576523	6.0713070
20.0400	20.0450	2	0	456.46109	54.029387	229.93058	6.2096410	6.3412372	6.0554648
20.0450	20.0500	3	0	455.93108	53.966762	229.57707	6.1934972	6.3248276	6.0396290
20.0500	20.0550	1	0	455.39988	53.903993	229.22504	6.1773663	6.3084289	6.0238041
20.0550	20.0600	4	0	454.81887	53.835332	228.84672	6.1605844	6.2913632	6.0073457
20.0600	20.0650	0	0	454.05769	53.745354	228.37325	6.1414439	6.2718816	5.9885927
20.0650	20.0700	3	1	453.29652	53.655377	227.89978	6.1223035	6.2523999	5.9698397
20.0700	20.0750	2	1	452.53373	53.565200	227.42617	6.1032252	6.2329841	5.9511490
20.0750	20.0800	3	1	451.77018	53.474932	226.95243	6.0841685	6.2135913	5.9324800
20.0800	20.0850	5	0	451.00662	53.384666	226.47884	6.0651342	6.1942213	5.9138307
20.0850	20.0900	2	0	450.24435	53.294572	226.00660	6.0462139	6.1749676	5.8952847
20.0900	20.0950	2	0	449.48209	53.204477	225.53436	6.0272936	6.1557139	5.8767386
20.0950	20.1000	4	0	449.16204	53.166699	225.27905	6.0142174	6.1424252	5.8638958
20.1000	20.1050	4	0	449.01695	53.149620	225.10958	6.0034548	6.1314980	5.8533107
20.1050	20.1100	1	0	448.88036	53.133542	224.94296	5.9927795	6.1206595	5.8428114
20.1100	20.1150	4	0	448.77427	53.121060	224.78638	5.9824043	6.1101263	5.8326071
20.1150	20.1200	3	0	448.66814	53.108573	224.62974	5.9720253	6.0995891	5.8223989
20.1200	20.1250	3	1	448.42298	53.079662	224.40390	5.9598419	6.0872093	5.8104301
20.1250	20.1300	2	1	448.12289	53.044261	224.15070	5.9469442	6.0741001	5.7977645
20.1300	20.1350	3	0	447.72939	52.997800	223.85096	5.9328251	6.0597453	5.7839091
20.1350	20.1400	5	0	446.99895	52.911445	223.38347	5.9143128	6.0409105	5.7657745
20.1400	20.1450	1	0	446.26879	52.825122	222.91616	5.8958075	6.0220828	5.7476467
20.1450	20.1500	2	2	445.53937	52.738895	222.44995	5.8774048	6.0033503	5.7296300
20.1500	20.1550	4	0	444.80996	52.652673	221.98401	5.8590357	5.9846482	5.7116502
20.1550	20.1600	2	0	444.15419	52.575164	221.55499	5.8416547	5.9669565	5.6946313
20.1600	20.1650	3	0	443.76421	52.529109	221.25929	5.8278439	5.9529149	5.6810840
20.1650	20.1700	2	0	443.37423	52.483054	220.96358	5.8140331	5.9388733	5.6675367
20.1700	20.1750	8	0	443.09092	52.449626	220.72142	5.8016662	5.9263122	5.6554022
20.1750	20.1800	2	1	442.84991	52.421205	220.50055	5.7898765	5.9143429	5.6438324
20.1800	20.1850	0	0	442.60898	52.392795	220.27984	5.7781116	5.9023877	5.6322765
20.1850	20.1900	3	0	442.36825	52.364419	220.05963	5.7664320	5.8904790	5.6207664
20.1900	20.1950	2	1	442.12751	52.336042	219.83941	5.7547524	5.8785703	5.6092563
20.1950	20.2000	4	0	441.81263	52.298878	219.58781	5.7422635	5.8658684	5.5969973
20.2000	20.2050	3	0	441.46845	52.258242	219.32379	5.7294535	5.8528518	5.5844410
20.2050	20.2100	1	1	441.10375	52.215178	219.05116	5.7164305	5.8396164	5.5716737
20.2100	20.2150	2	0	440.66556	52.163418	218.74791	5.7026615	5.8256138	5.5581661
20.2150	20.2200	4	0	440.22737	52.111658	218.44466	5.6888924	5.8116113	5.5446586
20.2200	20.2250	1	0	439.78949	52.059942	218.14195	5.6751796	5.7976658	5.5312093
20.2250	20.2300	3	0	439.35179	52.008250	217.83950	5.6614910	5.7837449	5.5177850
20.2300	20.2350	0	0	438.91444	51.956593	217.53739	5.6478274	5.7698495	5.5043873
20.2350	20.2400	2	0	438.47772	51.904988	217.23609	5.6342354	5.7560264	5.4910671
20.2400	20.2450	3	0	438.04083	51.853363	216.93467	5.6206381	5.7421980	5.4777419
20.2450	20.2500	3	0	437.60459	51.801818	216.63400	5.6071139	5.7284548	5.4644757
20.2500	20.2550	2	1	437.16855	51.750296	216.33358	5.5936165	5.7147431	5.4512308
20.2550	20.2600	5	0	436.73071	51.698558	216.03238	5.5801073	5.7010210	5.4379758
20.2600	20.2650	3	0	436.28693	51.646108	215.72877	5.5665744	5.6872801	5.4247022
20.2650	20.2700	5	0	435.84332	51.593678	215.42527	5.5530466	5.6735444	5.4114337
20.2700	20.2750	5	1	435.42629	51.544410	215.13534	5.5399160	5.6601971	5.3985569
20.2750	20.2800	4	0	435.01963	51.496375	214.85066	5.5269377	5.6469984	5.3858302
20.2800	20.2850	4	1	434.65067	51.452805	214.58472	5.5144526	5.6343025	5.3735822
20.2850	20.2900	6	1	434.41810	51.425383	214.38657	5.5037549	5.6234283	5.3630687
20.2900	20.2950	2	0	434.18552	51.397962	214.18843	5.4930572	5.6125541	5.3525552
20.2950	20.3000	5	0	433.95308	51.370550	213.99061	5.4823971	5.6017192	5.3420870
20.3000	20.3050	3	1	433.72082	51.343156	213.79302	5.4717576	5.5909057	5.3316422
20.3050	20.3100	2	0	433.48854	51.315762	213.59516	5.4611025	5.5800731	5.3211796
20.3100	20.3150	2	0	433.25607	51.288358	213.39621	5.4503870	5.5691676	5.3106487
20.3150	20.3200	4	0	433.02361	51.260954	213.19726	5.4396715	5.5582621	5.3001177
20.3200	20.3250	2	2	432.64217	51.215912	212.92080	5.4267651	5.5451352	5.2874553
20.3250	20.3300	4	0	432.20182	51.163894	212.61368	5.4129913	5.5311288	5.2739490
20.3300	20.3350	5	0	431.76210	51.111950	212.30697	5.3992412	5.5171445	5.2604674
20.3350	20.3400	3	1	431.32539	51.060361	212.00231	5.3856010	5.5032650	5.2470984
20.3400	20.3450	3	0	430.88869	51.008773	211.69764	5.3719608	5.4893854	5.2337294
20.3450	20.3500	1	0	430.45218	50.957210	211.39355	5.3583822	5.4755655	5.2204097
20.3500	20.3550	2	0	430.01582	50.905664	211.08973	5.3448301	5.4617712	5.2071115
20.3550	20.3600	3	0	429.65577	50.863153	210.82349	5.3322415	5.4489716	5.1947534
20.3600	20.3650	2	0	429.57141	50.853278	210.69292	5.3231226	5.4397539	5.1857802
20.3650	20.3700	6	0	429.48702	50.843400	210.56230	5.3140002	5.4305327	5.1768035
20.3700	20.3750	1	0	429.45840	50.840126	210.45918	5.3056067	5.4220214	5.1685594
20.3750	20.3800	1	2	429.45186	50.839467	210.36693	5.2975005	5.4137899	5.1606040
20.3800	20.3850	5	2	429.41837	50.835617	210.26152	5.2890693	5.4052295	5.1523256
20.3850	20.3900	3	0	429.28731	50.820208	210.10854	5.2794723	5.3954894	5.1428881
20.3900	20.3950	4	1	429.15630	50.804806	209.95561	5.2698790	5.3857531	5.1334543
20.3950	20.4000	3	0	428.97944	50.783969	209.77611	5.2596459	5.3753590	5.1233988
20.4000	20.4050	3	0	428.78436	50.760973	209.58602	5.2491557	5.3647005	5.1130933
20.4050	20.4100	3	0	428.58933	50.737984	209.39470	5.2386444	5.3540222	5.1027697
20.4100	20.4150	2	0	428.39457	50.715028	209.19899	5.2280614	5.3432767	5.0923848
20.4150	20.4200	2	1	428.19981	50.692071	209.00329	5.2174784	5.3325311	5.0820000
20.4200	20.4250	3	0	428.00514	50.669132	208.80794	5.2069371	5.3218310	5.0716562
20.4250	20.4300	3	0	427.81060	50.646212	208.61283	5.1964179	5.3111546	5.0613343
20.4300	20.4350	5	1	427.61612	50.623299	208.41786	5.1859134	5.3004906	5.0510251
20.4350	20.4400	5	1	427.42179	50.600404	208.22328	5.1754585	5.2898675	5.0407581
20.4400	20.4450	3	0	427.22746	50.577508	208.02871	5.1650035	5.2792443	5.0304910
20.4450	20.4500	4	0	427.03343	50.554644	207.83473	5.1545945	5.2686780	5.0202752
20.4500	20.4550	2	0	426.83948	50.531788	207.64095	5.1442021	5.2581327	5.0100781
20.4550	20.4600	3	0	426.64566	50.508948	207.44734	5.1338219	5.2475971	4.9998913
20.4600	20.4650	3	1	426.45263	50.486208	207.25474	5.1235040	5.2371149	4.9897602
20.4650	20.4700	2	0	426.25961	50.463468	207.06213	5.1131862	5.2266326	4.9796292
20.4700	20.4750	2	1	426.06694	50.440768	206.86977	5.1029187	5.2161968	4.9695422
20.4750	20.4800	3	0	425.87443	50.418087	206.67752	5.0926726	5.2057810	4.9594742
20.4800	20.4850	0	1	425.68205	50.395420	206.48551	5.0824405	5.1953816	4.9494245
20.4850	20.4900	4	0	425.48984	50.372774	206.29404	5.0722448	5.1850276	4.9394270
20.4900	20.4950	0	0	425.29756	50.350119	206.10251	5.0620451	5.1746696	4.9294256
20.4950	20.5000	1	1	425.10559	50.327501	205.91588	5.0520077	5.1644774	4.9195839
20.5000	20.5050	0	0	424.91372	50.304893	205.73117	5.0420330	5.1543494	4.9098039
20.5050	20.5100	3	0	424.72458	50.282610	205.54920	5.0321328	5.1443018	4.9000956
20.5100	20.5150	2	0	424.54567	50.261541	205.37742	5.0225162	5.1345602	4.8906611
20.5150	20.5200	2	0	424.36682	50.240479	205.20570	5.0129034	5.1248222	4.8812302
20.5200	20.5250	5	0	424.18463	50.219017	205.03270	5.0032912	5.1150636	4.8718054
20.5250	20.5300	0	0	424.00105	50.197389	204.85912	4.9936756	5.1052930	4.8623795
20.5300	20.5350	1	0	423.81497	50.175466	204.68437	4.9840417	5.0955042	4.8529331
20.5350	20.5400	3	1	423.61988	50.152486	204.50543	4.9743451	5.0856532	4.8434162
20.5400	20.5450	1	0	423.42480	50.129505	204.32649	4.9646485	5.0758021	4.8338994
20.5450	20.5500	6	0	423.22989	50.106539	204.14777	4.9549882	5.0659848	4.8244342
20.5500	20.5550	0	0	423.03515	50.083591	203.96923	4.9453473	5.0561861	4.8149946
20.5550	20.5600	2	0	422.84046	50.060649	203.79080	4.9357186	5.0464009	4.8055626
20.5600	20.5650	2	0	422.64587	50.037718	203.61269	4.9261304	5.0366613	4.7961546
20.5650	20.5700	5	1	422.45128	50.014787	203.43458	4.9165422	5.0269217	4.7867466
20.5700	20.5750	6	1	422.25698	49.991890	203.25711	4.9070008	5.0172243	4.7773810
20.5750	20.5800	0	0	422.06276	49.969003	203.07985	4.8974767	5.0075420	4.7680307
20.5800	20.5850	2	1	421.86854	49.946115	202.90260	4.8879599	4.9978681	4.7586912
20.5850	20.5900	4	0	421.67462	49.923263	202.72566	4.8784868	4.9882414	4.7494076
20.5900	20.5950	1	3	421.48071	49.900411	202.54871	4.8690137	4.9786148	4.7401239
20.5950	20.6000	3	0	421.17779	49.864659	202.31964	4.8583232	4.9677603	4.7296426
20.6000	20.6050	3	1	420.83167	49.823794	202.06992	4.8471512	4.9564202	4.7186876
20.6050	20.6100	1	0	420.48132	49.782427	201.81827	4.8359454	4.9450407	4.7077039
20.6100	20.6150	2	2	420.11515	49.739182	201.55933	4.8246017	4.9335021	4.6966006
20.6150	20.6200	0	0	419.74885	49.695921	201.30028	4.8132537	4.9219592	4.6854932
20.6200	20.6250	2	1	419.38312	49.652725	201.04206	4.8019591	4.9104777	4.6744368
20.6250	20.6300	3	0	419.01758	49.609548	200.78413	4.7906839	4.8990188	4.6633991
20.6300	20.6350	2	0	418.65200	49.566373	200.52625	4.7794214	4.8875699	4.6523712
20.6350	20.6400	0	1	418.28685	49.523263	200.26890	4.7682204	4.8761725	4.6413945
20.6400	20.6450	2	0	417.92184	49.480169	200.01165	4.7570236	4.8647796	4.6304220
20.6450	20.6500	2	0	417.55728	49.437115	199.75501	4.7458740	4.8534365	4.6195012
20.6500	20.6550	1	0	417.19276	49.394059	199.49852	4.7347389	4.8421088	4.6085968
20.6550	20.6600	1	0	416.88391	49.357594	199.26874	4.7242492	4.8314390	4.5983187
20.6600	20.6650	2	1	416.77711	49.345056	199.13594	4.7161054	4.8231598	4.5903163
20.6650	20.6700	5	0	416.67031	49.332518	199.00313	4.7079615	4.8148805	4.5823140
20.6700	20.6750	1	0	416.58122	49.322072	198.87900	4.7000350	4.8068323	4.5745325
20.6750	20.6800	3	0	416.49921	49.312461	198.75837	4.6921991	4.7988800	4.5668430
20.6800	20.6850	5	1	416.40942	49.301927	198.63408	4.6842819	4.7908470	4.5590778
20.6850	20.6900	5	1	416.29130	49.288030	198.49638	4.6760663	4.7825174	4.5510349
20.6900	20.6950	2	0	416.17318	49.274133	198.35868	4.6678508	4.7741879	4.5429920
20.6950	20.7000	3	1	415.91228	49.243325	198.14841	4.6579658	4.7641438	4.5333139
20.7000	20.7050	4	1	415.59476	49.205810	197.90935	4.6474177	4.7534187	4.5229864
20.7050	20.7100	3	0	415.27711	49.168286	197.66859	4.6368235	4.7426625	4.5126183
20.7100	20.7150	4	2	414.95958	49.130792	197.42213	4.6260803	4.7318127	4.5021215
20.7150	20.7200	1	0	414.64204	49.093298	197.17567	4.6153371	4.7209629	4.4916248
20.7200	20.7250	5	0	414.32389	49.055771	196.92555	4.6043842	4.7098590	4.4809203
20.7250	20.7300	2	1	414.00553	49.018236	196.67402	4.5933495	4.6986557	4.4701348
20.7300	20.7350	4	0	413.68758	48.980739	196.42289	4.5823411	4.6874734	4.4593678
20.7350	20.7400	3	0	413.37063	48.943322	196.17290	4.5714125	4.6763517	4.4486527
20.7400	20.7450	4	0	413.05355	48.905891	195.92282	4.5604798	4.6652257	4.4379335
20.7450	20.7500	2	0	412.73701	48.868519	195.67339	4.5495931	4.6541528	4.4272700
20.7500	20.7550	2	0	412.42062	48.831164	195.42419	4.5387229	4.6430993	4.4166270
20.7550	20.7600	2	0	412.10425	48.793811	195.17508	4.5278670	4.6320570	4.4060042
20.7600	20.7650	4	0	411.78834	48.756516	194.92661	4.5170777	4.6210702	4.3954697
20.7650	20.7700	6	0	411.47255	48.719235	194.67825	4.5062925	4.6100876	4.3849392
20.7700	20.7750	0	1	411.15708	48.681988	194.43043	4.4955545	4.5991580	4.3744309
20.7750	20.7800	2	3	410.84161	48.644741	194.18274	4.4848311	4.5882453	4.3639275
20.7800	20.7850	1	0	410.41691	48.604966	193.92514	4.4738903	4.5771101	4.3532149
20.7850	20.7900	1	0	409.59625	48.556043	193.63169	4.4621656	4.5651725	4.3417474
20.7900	20.7950	1	0	408.77559	48.507119	193.33824	4.4504409	4.5532350	4.3302800
20.7950	20.8000	6	0	407.17926	48.457713	193.04880	4.4388486	4.5414274	4.3189384
20.8000	20.8050	2	0	405.27567	48.408141	192.76110	4.4273151	4.5296778	4.3076529
20.8050	20.8100	2	0	402.83855	48.358585	192.47521	4.4158348	4.5179831	4.2964171
20.8100	20.8150	0	1	398.45766	48.309067	192.19575	4.4045435	4.5064839	4.2853586
20.8150	20.8200	6	0	394.07676	48.259548	191.91630	4.3932523	4.4949847	4.2743000
20.8200	20.8250	2	0	389.12352	48.201562	191.63995	4.3820737	4.4836089	4.2633557
20.8250	20.8300	3	2	383.94253	48.140209	191.36480	4.3709382	4.4722804	4.2524550
20.8300	20.8350	4	0	378.78626	48.047767	191.11105	4.3602992	4.4614557	4.2420367
20.8350	20.8400	6	0	373.72901	47.842506	190.93549	4.3514833	4.4524815	4.2333896
20.8400	20.8450	2	1	368.67175	47.637245	190.75993	4.3426675	4.4435073	4.2247425
20.8450	20.8500	2	0	364.70970	47.008050	190.58468	4.3338864	4.4345762	4.2161347
20.8500	20.8550	5	0	361.18396	46.210293	190.40958	4.3251204	4.4256636	4.2075439
20.8550	20.8600	6	1	358.30156	45.460382	190.23056	4.3162773	4.4166675	4.1988763
20.8600	20.8650	8	0	357.75293	44.883299	190.03710	4.3071417	4.4073548	4.1899178
20.8650	20.8700	2	0	357.20410	44.305996	189.84356	4.2980027	4.3980387	4.1809559
20.8700	20.8750	10	1	357.34597	43.562867	189.60451	4.2878659	4.3877065	4.1710232
20.8750	20.8800	4	0	357.76217	42.753770	189.34734	4.2773313	4.3769693	4.1607034
20.8800	20.8850	4	0	358.46997	42.042724	189.09030	4.2668111	4.3662433	4.1503960
20.8850	20.8900	7	0	360.23896	41.689835	188.83407	4.2563581	4.3555731	4.1401484
20.8900	20.8950	10	0	362.00727	41.337080	188.57794	4.2459091	4.3449070	4.1299046
20.8950	20.9000	9	0	363.55602	41.248467	188.31736	4.2353889	4.3341783	4.1195996
20.9000	20.9050	9	0	365.01806	41.264858	188.05490	4.2248363	4.3234208	4.1092662
20.9050	20.9100	8	1	366.53148	41.390945	187.79403	4.2143295	4.3127123	4.0989767
20.9100	20.9150	9	0	368.23096	41.915399	187.53901	4.2039932	4.3021861	4.0888503
20.9150	20.9200	2	0	369.93043	42.439853	187.28398	4.1936569	4.2916600	4.0787240
20.9200	20.9250	11	0	371.41739	42.813322	187.05316	4.1838982	4.2817210	4.0691597
20.9250	20.9300	5	0	372.81908	43.126573	186.83209	4.1743744	4.2720207	4.0598240
20.9300	20.9350	2	0	373.88987	43.414785	186.61119	4.1648638	4.2623345	4.0505006
20.9350	20.9400	5	0	373.75476	43.611824	186.39086	4.1553978	4.2526958	4.0412188
20.9400	20.9450	4	1	373.61964	43.808863	186.17053	4.1459317	4.2430571	4.0319370
20.9450	20.9500	2	1	373.93471	43.895813	185.95097	4.1365205	4.2334858	4.0226993
20.9500	20.9550	2	0	374.42872	43.939027	185.73167	4.1271296	4.2239398	4.0134776
20.9550	20.9600	3	0	374.88171	43.985736	185.50873	4.1172190	4.2138599	4.0037462
20.9600	20.9650	3	0	375.18458	44.045090	185.27295	4.1054338	4.2018543	3.9921760
20.9650	20.9700	2	1	375.48744	44.104444	185.03716	4.0936486	4.1898487	3.9806057
20.9700	20.9750	4	1	375.51098	44.047526	184.75931	4.0785912	4.1745193	3.9658446
20.9750	20.9800	2	1	375.42330	43.944316	184.46476	4.0622330	4.1578687	3.9498151
20.9800	20.9850	0	0	375.31427	43.881634	184.14016	4.0449175	4.1402389	3.9328486
20.9850	20.9900	0	0	375.12748	43.966328	183.70580	4.0240952	4.1190223	3.9124495
20.9900	20.9950	0	0	374.94062	44.051055	183.27128	4.0032649	4.0977976	3.8920426
20.9950	21.0000	1	1	374.44946	44.107338	182.83159	3.9811942	4.0753118	3.8704266
21.0000	21.0050	4	0	373.83725	44.152323	182.38977	3.9586271	4.0523212	3.8483267
21.0050	21.0100	2	0	373.31606	44.178683	181.98248	3.9385823	4.0318994	3.8286987
21.0100	21.0150	3	0	373.12736	44.137111	181.70163	3.9277599	4.0208699	3.8181090
21.0150	21.0200	1	0	372.93874	44.095555	181.42089	3.9169417	4.0098447	3.8075233
21.0200	21.0250	1	0	372.88641	44.043553	181.19489	3.9129685	4.0057878	3.8036641
21.0250	21.0300	1	0	372.88832	43.987373	180.99061	3.9117187	4.0045032	3.8024809
21.0300	21.0350	1	0	372.85982	43.951493	180.79440	3.9102446	4.0029926	3.8010750
21.0350	21.0400	1	0	372.72074	43.989457	180.62765	3.9079559	4.0006604	3.7988597
21.0400	21.0450	1	0	372.58167	44.027421	180.46089	3.9056673	3.9983283	3.7966445
21.0450	21.0500	1	0	372.38302	44.001411	180.30295	3.9020376	3.9946318	3.7931049
21.0500	21.0550	4	0	372.16077	43.949957	180.14859	3.8978761	3.9903942	3.7890402
21.0550	21.0600	4	0	371.99596	43.908532	179.98969	3.8930820	3.9855188	3.7843557
21.0600	21.0650	3	0	372.04068	43.903677	179.81420	3.8859774	3.9783143	3.7774079
21.0650	21.0700	3	0	372.08539	43.898822	179.63870	3.8788729	3.9711098	3.7704602
21.0700	21.0750	2	0	372.15713	43.915713	179.45067	3.8700162	3.9621025	3.7617863
21.0750	21.0800	1	0	372.23960	43.941250	179.25763	3.8604619	3.9523773	3.7524252
21.0800	21.0850	4	1	372.29761	43.973471	179.04888	3.8510977	3.9428442	3.7432549
21.0850	21.0900	1	0	372.26629	44.030009	178.78322	3.8424431	3.9340283	3.7347963
21.0900	21.0950	0	2	372.23497	44.086547	178.51756	3.8337885	3.9252124	3.7263377
21.0950	21.1000	2	2	371.78625	44.067577	178.23226	3.8265201	3.9177975	3.7192507
21.1000	21.1050	4	0	371.17121	44.018510	177.93918	3.8198052	3.9109421	3.7127115
21.1050	21.1100	2	0	370.55768	43.983117	177.62840	3.8115853	3.9025521	3.7046934
21.1100	21.1150	5	0	369.94882	43.997472	177.25277	3.7978728	3.8885617	3.6912783
21.1150	21.1200	3	0	369.33973	44.011832	176.87700	3.7841551	3.8745659	3.6778582
21.1200	21.1250	2	1	368.69585	43.924416	176.41937	3.7656193	3.8556577	3.6597200
21.1250	21.1300	3	1	368.03804	43.796484	175.92909	3.7451633	3.8347916	3.6397014
21.1300	21.1350	4	0	367.33685	43.667952	175.43914	3.7247578	3.8139757	3.6197309
21.1350	21.1400	4	1	366.47823	43.537410	174.95104	3.7045649	3.7933725	3.5999642
21.1400	21.1450	1	0	365.61995	43.406917	174.46313	3.6843797	3.7727771	3.5802049
21.1450	21.1500	3	0	365.16905	43.270431	173.97609	3.6643066	3.7522897	3.5605509
21.1500	21.1550	4	1	364.88032	43.131504	173.48922	3.6442706	3.7318377	3.5409315
21.1550	21.1600	8	0	364.59068	43.022228	173.09517	3.6278110	3.7150385	3.5248128
21.1600	21.1650	4	1	364.29786	43.020935	173.03918	3.6243772	3.7115437	3.5214443
21.1650	21.1700	6	0	364.00504	43.019641	172.98320	3.6209434	3.7080488	3.5180758
21.1700	21.1750	8	0	364.09074	43.072130	173.00362	3.6243930	3.7115785	3.5214506
21.1750	21.1800	8	0	364.32719	43.146018	173.05446	3.6305831	3.7179050	3.5275101
21.1800	21.1850	7	0	364.59421	43.198016	173.09172	3.6352727	3.7226997	3.5320961
21.1850	21.1900	6	0	364.97302	43.170044	173.07938	3.6344806	3.7218993	3.5312993
21.1900	21.1950	6	0	365.35184	43.142071	173.06704	3.6336885	3.7210989	3.5305025
21.1950	21.2000	11	0	364.73201	43.134465	172.73450	3.6215015	3.7086703	3.5185892
21.2000	21.2050	7	0	363.71474	43.134961	172.27451	3.6047789	3.6916133	3.5022509
21.2050	21.2100	8	2	362.79496	43.103208	171.81043	3.5876466	3.6741366	3.4855084
21.2100	21.2150	16	0	362.23266	42.953800	171.33226	3.5690497	3.6551592	3.4673201
21.2150	21.2200	7	1	361.67036	42.804392	170.85410	3.5504528	3.6361818	3.4491319
21.2200	21.2250	6	1	361.07085	42.677134	170.37796	3.5310513	3.6163824	3.4301474
21.2250	21.2300	6	0	360.45657	42.558738	169.90270	3.5113315	3.5962579	3.4108481
21.2300	21.2350	7	0	359.84577	42.461477	169.46487	3.4926217	3.5771672	3.3925348
21.2350	21.2400	6	1	359.24682	42.441187	169.16295	3.4775702	3.5618214	3.3777929
21.2400	21.2450	6	0	358.64764	42.420889	168.86091	3.4625129	3.5464698	3.3630454
21.2450	21.2500	2	0	358.40247	42.370952	168.56675	3.4484668	3.5321505	3.3492908
21.2500	21.2550	1	1	358.29836	42.309195	168.27567	3.4348216	3.5182404	3.3359298
21.2550	21.2600	1	0	358.11508	42.260150	167.99752	3.4220693	3.5052411	3.3234456
21.2600	21.2650	0	1	357.64269	42.257640	167.76700	3.4125990	3.4955892	3.3141842
21.2650	21.2700	4	0	357.17047	42.255130	167.53658	3.4031324	3.4859410	3.3049264
21.2700	21.2750	5	0	356.98917	42.252730	167.42345	3.3993755	3.4821178	3.3012529
21.2750	21.2800	4	0	356.92379	42.250372	167.35704	3.3978936	3.4806155	3.2998046
21.2800	21.2850	2	0	356.91982	42.269771	167.28776	3.3960354	3.4787326	3.2979871
21.2850	21.2900	1	0	357.13955	42.368433	167.20803	3.3928065	3.4754637	3.2948250
21.2900	21.2950	2	0	357.35929	42.467095	167.12830	3.3895776	3.4721949	3.2916629
21.2950	21.3000	2	1	357.06978	42.417480	166.98775	3.3838966	3.4664215	3.2861022
21.3000	21.3050	0	2	356.57740	42.308776	166.82303	3.3772411	3.4596527	3.2795883
21.3050	21.3100	4	1	356.11535	42.213620	166.61734	3.3689454	3.4512126	3.2714720
21.3100	21.3150	1	0	355.76416	42.168020	166.26159	3.3546417	3.4366504	3.2574865
21.3150	21.3200	4	1	355.41297	42.122420	165.90583	3.3403381	3.4220882	3.2435009
21.3200	21.3250	0	0	354.72570	42.048632	165.53330	3.3234947	3.4049432	3.2270218
21.3250	21.3300	0	0	353.90434	41.963595	165.15401	3.3056363	3.3867660	3.2095461
21.3300	21.3350	3	0	353.14363	41.875892	164.77416	3.2877613	3.3685673	3.1920565
21.3350	21.3400	3	0	352.60595	41.778604	164.39293	3.2698577	3.3503230	3.1745470
21.3400	21.3450	1	1	352.06827	41.681316	164.01169	3.2519541	3.3320786	3.1570375
21.3450	21.3500	2	0	351.76722	41.654556	163.63080	3.2341655	3.3139449	3.1396343
21.3500	21.3550	1	1	351.56079	41.655986	163.25011	3.2164257	3.2958581	3.1222763
21.3550	21.3600	2	0	351.22703	41.639268	162.87119	3.1989007	3.2779895	3.1051311
21.3600	21.3650	1	1	350.42777	41.556240	162.49825	3.1821359	3.2608930	3.0887396
21.3650	21.3700	2	0	349.62820	41.473180	162.12516	3.1653647	3.2437899	3.0723419
21.3700	21.3750	2	2	348.79131	41.370486	161.71195	3.1483196	3.2264043	3.0557014
21.3750	21.3800	1	0	347.93940	41.259948	161.28267	3.1311626	3.2089033	3.0389616
21.3800	21.3850	4	0	347.16831	41.155463	160.85512	3.1142915	3.1916930	3.0224987
21.3850	21.3900	6	2	346.69399	41.073270	160.43449	3.0984906	3.1755704	3.0070720
21.3900	21.3950	3	0	346.21985	40.991108	160.01402	3.0826956	3.1594539	2.9916511
21.3950	21.4000	1	0	345.33517	40.917772	159.59909	3.0679479	3.1444035	2.9772644
21.4000	21.4050	4	0	344.28632	40.847929	159.18621	3.0536124	3.1297728	2.9632850
21.4050	21.4100	6	0	343.46637	40.771217	158.82840	3.0426084	3.1185463	2.9525627
21.4100	21.4150	3	0	343.48240	40.669452	158.67176	3.0437719	3.1197530	2.9537362
21.4150	21.4200	1	1	343.49843	40.567687	158.51512	3.0449355	3.1209598	2.9549098
21.4200	21.4250	3	0	343.65653	40.615925	158.59239	3.0580520	3.1343480	2.9677808
21.4250	21.4300	3	0	343.87126	40.724017	158.76300	3.0759330	3.1525918	2.9853145
21.4300	21.4350	5	1	344.01628	40.801454	158.92421	3.0926768	3.1696753	3.0017329
21.4350	21.4400	5	2	343.90631	40.766763	159.05109	3.1052659	3.1825203	3.0140776
21.4400	21.4450	4	0	343.79633	40.732073	159.17797	3.1178551	3.1953653	3.0264222
21.4450	21.4500	7	0	343.73523	40.728049	159.13618	3.1232836	3.2009000	3.0317725
21.4500	21.4550	5	0	343.69359	40.736248	159.02715	3.1258591	3.2035221	3.0343360
21.4550	21.4600	11	1	343.50059	40.713079	158.86161	3.1260343	3.2036943	3.0345528
21.4600	21.4650	4	0	342.75428	40.575210	158.48964	3.1174287	3.1949043	3.0261846
21.4650	21.4700	11	0	342.00796	40.437341	158.11767	3.1088231	3.1861144	3.0178165
21.4700	21.4750	4	0	341.16227	40.361314	157.70705	3.0953249	3.1723372	3.0046438
21.4750	21.4800	2	0	340.27699	40.310020	157.28103	3.0798729	3.1565684	2.9895525
21.4800	21.4850	3	0	339.47008	40.233634	156.86497	3.0656366	3.1420374	2.9756536
21.4850	21.4900	3	1	338.94853	40.065418	156.48472	3.0558243	3.1320107	2.9660939
21.4900	21.4950	1	1	338.42678	39.897138	156.10432	3.0460082	3.1219802	2.9565305
21.4950	21.5000	3	1	337.57234	39.773329	155.76559	3.0396805	3.1167122	2.9515519
21.5000	21.5050	1	0	336.58500	39.667247	155.44345	3.0347441	3.1133440	2.9484022
21.5050	21.5100	2	3	335.72076	39.577886	155.12237	3.0289063	3.1095953	2.9448844
21.5100	21.5150	3	0	335.30862	39.549895	154.80565	3.0197752	3.1044582	2.9400235
21.5150	21.5200	2	0	334.89663	39.521915	154.48905	3.0106476	3.0993231	2.9351645
21.5200	21.5250	2	1	334.10214	39.509708	154.15857	2.9949251	3.0917920	2.9279809
21.5250	21.5300	2	1	333.15444	39.503801	153.82243	2.9765605	3.0833003	2.9198654
21.5300	21.5350	7	0	332.21089	39.470955	153.48222	2.9543941	3.0742737	2.9112370
21.5350	21.5400	5	1	331.28284	39.339633	153.12732	2.9183364	3.0632950	2.9007362
21.5400	21.5450	2	0	330.35478	39.208311	152.77242	2.8822787	3.0523163	2.8902354
21.5450	21.5500	6	1	329.71369	39.152538	152.40191	2.8479890	3.0393222	2.8778167
21.5500	21.5550	4	1	329.18765	39.126996	152.02536	2.8144244	3.0255292	2.8646379
21.5550	21.5600	10	0	328.56407	39.082955	151.65413	2.7792711	3.0123918	2.8520863
21.5600	21.5650	9	1	327.58224	38.971006	151.30230	2.7382740	3.0016552	2.8418315
21.5650	21.5700	16	0	326.60041	38.859056	150.95047	2.6972769	2.9909186	2.8315767
21.5700	21.5750	25	0	325.62355	38.679741	150.57301	2.6686313	2.9825398	2.8236139
21.5750	21.5800	23	1	324.64854	38.473487	150.18525	2.6449158	2.9751017	2.8165655
21.5800	21.5850	33	1	323.69140	38.277140	149.78895	2.6207094	2.9667749	2.8086613
21.5850	21.5900	37	1	322.80146	38.117418	149.36213	2.5947489	2.9552089	2.7976376
21.5900	21.5950	39	0	321.91151	37.957695	148.93532	2.5687884	2.9436430	2.7866138
21.5950	21.6000	43	1	320.67489	37.861053	148.48308	2.5595032	2.9288467	2.7724795
21.6000	21.6050	42	2	319.29970	37.789671	148.02073	2.5568932	2.9127598	2.7571024
21.6050	21.6100	48	3	318.00028	37.712821	147.54068	2.5517178	2.8958402	2.7409300
21.6100	21.6150	37	1	316.97650	37.615844	146.99512	2.5371417	2.8758477	2.7218234
21.6150	21.6200	21	0	315.95232	37.518831	146.44935	2.5225600	2.8558477	2.7027094
21.6200	21.6250	13	0	314.67564	37.408699	145.87330	2.5060838	2.8326670	2.6805310
21.6250	21.6300	19	1	313.29787	37.293309	145.28506	2.4888480	2.8082119	2.6571246
21.6300	21.6350	12	0	311.91325	37.169094	144.70702	2.4743070	2.7850231	2.6349365
21.6350	21.6400	9	2	310.50544	37.012647	144.16727	2.4696817	2.7665165	2.6172528
21.6400	21.6450	14	1	309.09817	36.856260	143.62772	2.4650582	2.7480170	2.5995759
21.6450	21.6500	6	0	307.85666	36.759994	143.13136	2.4507886	2.7342947	2.5864992
21.6500	21.6550	3	0	306.68101	36.687757	142.65211	2.4326524	2.7224793	2.5752589
21.6550	21.6600	4	0	305.33845	36.580640	142.17502	2.4200629	2.7105755	2.5639295
21.6600	21.6650	2	0	303.38571	36.345956	141.70603	2.4277709	2.6983527	2.5522782
21.6650	21.6700	7	0	301.43298	36.111272	141.23703	2.4354789	2.6861299	2.5406269
21.6700	21.6750	3	0	299.59334	35.945574	140.76522	2.4300135	2.6720639	2.5285827
21.6750	21.6800	6	0	297.79992	35.807558	140.29254	2.4192819	2.6572682	2.5163876
21.6800	21.6850	6	0	295.80516	35.674426	139.81890	2.4095814	2.6422704	2.5040633
21.6850	21.6900	2	0	293.07038	35.559171	139.34157	2.4036628	2.6265252	2.4912595
21.6900	21.6950	2	1	290.33560	35.443917	138.86425	2.3977442	2.6107799	2.4784556
21.6950	21.7000	1	2	287.08889	35.221495	138.37988	2.3888776	2.5783860	2.4650973
21.7000	21.7050	2	0	283.63719	34.956234	137.89262	2.3788322	2.5393372	2.4515156
21.7050	21.7100	2	0	280.56793	34.686751	137.40697	2.3682513	2.5011713	2.4382120
21.7100	21.7150	6	1	278.90669	34.402264	136.92807	2.3557254	2.4663110	2.4259520
21.7150	21.7200	3	0	277.24545	34.117778	136.44917	2.3431994	2.4314508	2.4136921
21.7200	21.7250	1	0	276.24264	33.829861	135.97797	2.3388485	2.3920988	2.4022529
21.7250	21.7300	2	0	275.50388	33.540613	135.50992	2.3377750	2.3509525	2.3911443
21.7300	21.7350	1	0	275.23900	33.209619	135.04034	2.3340648	2.3087199	2.3798184
21.7350	21.7400	0	0	276.71165	32.725059	134.56452	2.3206802	2.2624449	2.3676797
21.7400	21.7450	3	0	278.18486	32.240315	134.08851	2.3072904	2.2161522	2.3555364
21.7450	21.7500	3	0	280.62202	31.870365	133.34959	2.2907816	2.1833359	2.3380780
21.7500	21.7550	2	0	283.44509	31.546272	132.50540	2.2730228	2.1559046	2.3184911
21.7550	21.7600	2	1	286.10728	31.304405	131.69117	2.2555617	2.1323553	2.2990482
21.7600	21.7650	2	1	288.17475	31.364933	130.98814	2.2392184	2.1230994	2.2801617
21.7650	21.7700	4	0	290.24143	31.425437	130.28539	2.2228814	2.1138471	2.2612824
21.7700	21.7750	7	0	291.96609	31.635743	129.70950	2.2018603	2.1099325	2.2310945
21.7750	21.7800	5	0	293.55442	31.906127	129.18420	2.1789551	2.1081545	2.1963658
21.7800	21.7850	8	0	294.90647	32.234210	128.64772	2.1594345	2.1042605	2.1561515
21.7850	21.7900	13	0	295.39288	32.773422	128.07052	2.1523129	2.0926211	2.0958680
21.7900	21.7950	4	1	295.87928	33.312635	127.49331	2.1451913	2.0809816	2.0355845
21.7950	21.8000	6	0	295.77870	33.766804	126.97394	2.1302243	2.0790002	1.9911837
21.8000	21.8050	10	0	295.44330	34.186702	126.47797	2.1121259	2.0808844	1.9531620
21.8050	21.8100	2	0	295.00943	34.535071	125.99049	2.0960051	2.0800961	1.9145329
21.8100	21.8150	4	0	294.21343	34.620618	125.53401	2.0871483	2.0694827	1.8736561
21.8150	21.8200	10	1	293.41742	34.706164	125.07753	2.0782915	2.0588693	1.8327793
21.8200	21.8250	9	0	292.16609	34.609863	124.44847	2.0627679	2.0444190	1.8054948
21.8250	21.8300	4	0	290.73243	34.440808	123.75028	2.0445753	2.0284319	1.7836431
21.8300	21.8350	8	0	289.39891	34.283485	123.09556	2.0267091	2.0147642	1.7664960
21.8350	21.8400	0	0	288.43524	34.169499	122.60153	2.0100729	2.0096322	1.7666434
21.8400	21.8450	3	1	287.47158	34.055513	122.10749	1.9934368	2.0045003	1.7667908
21.8450	21.8500	2	0	286.63874	33.957020	121.66978	1.9822180	1.9964546	1.7762805
21.8500	21.8550	2	0	285.85848	33.864754	121.25472	1.9731732	1.9872419	1.7895147
21.8550	21.8600	1	0	284.92452	33.754277	120.77494	1.9611697	1.9771675	1.7993245
21.8600	21.8650	2	0	283.42553	33.576855	120.05707	1.9382975	1.9639185	1.7965883
21.8650	21.8700	0	0	281.92598	33.399365	119.33893	1.9154167	1.9506644	1.7938511
21.8700	21.8750	1	0	280.67539	33.251361	118.72763	1.9029038	1.9320720	1.7901019
21.8750	21.8800	1	1	279.52425	33.115134	118.15899	1.8945382	1.9113404	1.7859471
21.8800	21.8850	3	0	278.35207	32.976419	117.58185	1.8846241	1.8928484	1.7793804
21.8850	21.8900	3	0	277.10415	32.828745	116.97428	1.8690294	1.8826186	1.7639527
21.8900	21.8950	0	0	275.85670	32.681127	116.36693	1.8534407	1.8723928	1.7485310
21.8950	21.9000	1	2	274.90306	32.568321	115.88169	1.8399198	1.8623213	1.7410085
21.9000	21.9050	4	1	274.06684	32.469429	115.44523	1.8272228	1.8523079	1.7366501
21.9050	21.9100	2	0	273.16084	32.362264	114.97884	1.8142781	1.8419644	1.7303432
21.9100	21.9150	1	0	271.99908	32.224785	114.40278	1.8004295	1.8304133	1.7168877
21.9150	21.9200	1	0	270.83732	32.087305	113.82672	1.7865808	1.8188622	1.7034321
21.9200	21.9250	2	0	269.69735	31.952404	113.26132	1.7702339	1.8071942	1.6928862
21.9250	21.9300	6	0	268.56673	31.818610	112.70050	1.7528934	1.7954855	1.6835132
21.9300	21.9350	2	0	267.45958	31.687596	112.14994	1.7374646	1.7836285	1.6731493
21.9350	21.9400	0	0	266.43849	31.566778	111.63703	1.7290743	1.7712207	1.6591302
21.9400	21.9450	1	0	265.41740	31.445960	111.12412	1.7206840	1.7588129	1.6451110
21.9450	21.9500	1	1	264.15572	31.296637	110.51199	1.7077489	1.7431198	1.6300596
21.9500	21.9550	3	0	262.79751	31.135876	109.86005	1.6929920	1.7261087	1.6145927
21.9550	21.9600	1	0	261.55148	30.988406	109.25434	1.6791557	1.7105681	1.6003114
21.9600	21.9650	1	1	260.71987	30.890033	108.81960	1.6687270	1.7004583	1.5904124
21.9650	21.9700	2	0	259.88825	30.791659	108.38487	1.6582982	1.6903485	1.5805133
21.9700	21.9750	2	0	258.95207	30.680896	107.90775	1.6464830	1.6793245	1.5697561
21.9750	21.9800	4	0	257.97406	30.565177	107.41369	1.6341132	1.6679353	1.5586562
21.9800	21.9850	2	0	257.04058	30.454734	106.93858	1.6211885	1.6566918	1.5474483
21.9850	21.9900	1	0	256.26939	30.363513	106.53243	1.6062066	1.6459675	1.5358279
21.9900	21.9950	4	0	255.49790	30.272257	106.12613	1.5912191	1.6352390	1.5242031
21.9950	22.0000	3	0	254.78503	30.187954	105.74796	1.5809768	1.6242540	1.5143447
22.0000	22.0050	3	0	254.09530	30.106393	105.38087	1.5726324	1.6131602	1.5051897
22.0050	22.0100	2	2	253.35718	30.019095	104.99489	1.5640409	1.6019093	1.4958277
22.0100	22.0150	4	1	252.43975	29.910537	104.53875	1.5545256	1.5900605	1.4856878
22.0150	22.0200	4	0	251.52266	29.802020	104.08278	1.5450139	1.5782163	1.4755517
22.0200	22.0250	3	1	250.79804	29.716299	103.70739	1.5350016	1.5681573	1.4668157
22.0250	22.0300	0	0	250.15035	29.639693	103.36418	1.5247847	1.5588108	1.4586382
22.0300	22.0350	2	1	249.49638	29.562344	103.01868	1.5145696	1.5486040	1.4497975
22.0350	22.0400	4	0	248.81810	29.482126	102.66412	1.5043431	1.5352130	1.4385007
22.0400	22.0450	3	2	248.14008	29.401938	102.30969	1.4941205	1.5218270	1.4272081
22.0450	22.0500	5	0	247.41309	29.315954	101.93597	1.4827490	1.5120044	1.4178047
22.0500	22.0550	8	0	246.66686	29.227691	101.55472	1.4709227	1.5036165	1.4091641
22.0550	22.0600	7	1	246.06044	29.155992	101.23118	1.4604241	1.4960834	1.4014077
22.0600	22.0650	10	1	245.96920	29.145329	101.12026	1.4548159	1.4916982	1.3969079
22.0650	22.0700	10	0	245.87797	29.134665	101.00933	1.4492078	1.4873130	1.3924081
22.0700	22.0750	12	0	245.88703	29.135886	100.93985	1.4422862	1.4817342	1.3874694
22.0750	22.0800	11	1	245.93631	29.141872	100.88699	1.4348369	1.4756759	1.3823539
22.0800	22.0850	12	1	245.86123	29.133125	100.78322	1.4275908	1.4686231	1.3770369
22.0850	22.0900	26	3	245.32858	29.070162	100.49227	1.4211055	1.4579224	1.3709880
22.0900	22.0950	14	1	244.79594	29.007199	100.20132	1.4146203	1.4472217	1.3649390
22.0950	22.1000	31	3	244.57658	28.981354	100.03708	1.4091962	1.4416122	1.3588614
22.1000	22.1050	31	3	244.48310	28.970424	99.923751	1.4041992	1.4380486	1.3527731
22.1050	22.1100	19	0	244.43916	28.965364	99.830148	1.3987469	1.4345176	1.3471315
22.1100	22.1150	22	0	244.57748	28.981907	99.809018	1.3916110	1.4311016	1.3431257
22.1150	22.1200	18	1	244.71586	28.998456	99.787880	1.3844723	1.4276844	1.3391184
22.1200	22.1250	4	1	245.02430	29.035155	99.835963	1.3789037	1.4230754	1.3353891
22.1250	22.1300	7	1	245.40118	29.079962	99.911856	1.3739624	1.4179855	1.3317696
22.1300	22.1350	9	0	245.72231	29.118142	99.971477	1.3700299	1.4142400	1.3290027
22.1350	22.1400	7	1	245.83875	29.131995	99.971291	1.3698048	1.4154376	1.3293702
22.1400	22.1450	6	2	245.95515	29.145842	99.971105	1.3695798	1.4166348	1.3297377
22.1450	22.1500	4	0	245.88695	29.137748	99.917727	1.3710684	1.4168764	1.3305937
22.1500	22.1550	1	1	245.74454	29.120831	99.842948	1.3732465	1.4167339	1.3316465
22.1550	22.1600	7	1	245.77645	29.124588	99.832531	1.3752768	1.4165252	1.3326694
22.1600	22.1650	0	2	246.45107	29.204562	100.05936	1.3767661	1.4160716	1.3335844
22.1650	22.1700	2	0	247.12542	29.284505	100.28609	1.3782549	1.4156182	1.3344989
22.1700	22.1750	1	0	246.83148	29.249757	100.10181	1.3732213	1.4114983	1.3297827
22.1750	22.1800	4	1	246.14894	29.168982	99.752616	1.3655719	1.4059084	1.3228084
22.1800	22.1850	0	1	245.69194	29.114910	99.504255	1.3599923	1.4021754	1.3175654
22.1850	22.1900	3	1	246.06720	29.159378	99.627992	1.3620503	1.4052946	1.3187113
22.1900	22.1950	1	1	246.44246	29.203845	99.751729	1.3641083	1.4084137	1.3198571
22.1950	22.2000	0	1	247.10183	29.281880	100.02468	1.3682780	1.4164059	1.3270217
22.2000	22.2050	2	1	247.87538	29.373403	100.35758	1.3732962	1.4263558	1.3366038
22.2050	22.2100	3	0	248.50033	29.447366	100.61546	1.3779275	1.4331337	1.3436402
22.2100	22.2150	2	0	248.57663	29.456493	100.59646	1.3811249	1.4282121	1.3412840
22.2150	22.2200	2	1	248.65293	29.465620	100.57746	1.3843223	1.4232904	1.3389278
22.2200	22.2250	1	0	248.70409	29.471905	100.49289	1.3750796	1.4171565	1.3308551
22.2250	22.2300	0	0	248.74514	29.477046	100.38199	1.3608386	1.4105364	1.3204863
22.2300	22.2350	4	0	248.89771	29.495397	100.28289	1.3489868	1.4038682	1.3116011
22.2350	22.2400	4	0	249.46093	29.562391	100.22708	1.3459110	1.3970138	1.3081639
22.2400	22.2450	3	0	250.02436	29.629410	100.17125	1.3428340	1.3901568	1.3047253
22.2450	22.2500	2	0	250.35495	29.668837	99.567155	1.3361323	1.3810362	1.2971508
22.2500	22.2550	2	0	250.59224	29.697210	98.742651	1.3279719	1.3710021	1.2879120
22.2550	22.2600	1	1	251.13698	29.761961	97.968305	1.3231203	1.3660353	1.2832581
22.2600	22.2650	3	0	252.81642	29.960975	97.377538	1.3304615	1.3797462	1.2955032
22.2650	22.2700	3	0	254.49522	30.159913	96.786995	1.3377999	1.3934519	1.3077437
22.2700	22.2750	1	0	255.60441	30.291159	95.902351	1.3521868	1.4067009	1.3203190
22.2750	22.2800	0	0	256.48483	30.395216	94.899025	1.3694154	1.4197714	1.3330339
22.2800	22.2850	1	1	257.46699	30.511381	93.922935	1.3842856	1.4320165	1.3448729
22.2850	22.2900	2	0	258.82630	30.672421	93.045573	1.3904817	1.4412391	1.3535018
22.2900	22.2950	2	0	260.18508	30.833399	92.168546	1.3966754	1.4504581	1.3621275
22.2950	22.3000	1	0	260.75065	30.900576	91.664646	1.3955470	1.4484377	1.3602381
22.3000	22.3050	1	0	260.99710	30.930014	91.310987	1.3914762	1.4419008	1.3541233
22.3050	22.3100	0	0	261.47317	30.986623	91.139598	1.3885849	1.4375485	1.3499659
22.3100	22.3150	1	0	262.79836	31.143715	91.642059	1.3900535	1.4412717	1.3530443
22.3150	22.3200	1	0	264.12355	31.300807	92.144521	1.3915221	1.4449950	1.3561227
22.3200	22.3250	5	0	265.28268	31.438093	93.393108	1.3980274	1.4540536	1.3640887
22.3250	22.3300	0	0	266.37528	31.567445	94.941527	1.4065563	1.4652563	1.3740187
22.3300	22.3350	1	0	267.39206	31.687833	96.369971	1.4140993	1.4750523	1.3827753
22.3350	22.3400	2	1	268.12760	31.774973	97.353764	1.4179953	1.4796473	1.3871923
22.3400	22.3450	3	0	268.86314	31.862112	98.337558	1.4218914	1.4842423	1.3916093
22.3450	22.3500	2	0	269.96969	31.993290	99.218093	1.4200387	1.4878100	1.3964199
22.3500	22.3550	2	2	271.22546	32.142182	100.05691	1.4158713	1.4909634	1.4013881
22.3550	22.3600	1	0	272.51234	32.294785	100.88892	1.4144271	1.4934672	1.4055263
22.3600	22.3650	0	0	273.91583	32.461303	101.69695	1.4230335	1.4935762	1.4066064
22.3650	22.3700	1	1	275.31985	32.627884	102.50529	1.4316432	1.4936853	1.4076869
22.3700	22.3750	3	0	276.55392	32.774416	103.00507	1.4287070	1.4909891	1.4045798
22.3750	22.3800	6	0	277.72031	32.912965	103.38106	1.4211269	1.4871637	1.3997874
22.3800	22.3850	2	1	278.71624	33.031314	103.73836	1.4123878	1.4820911	1.3943297
22.3850	22.3900	2	1	279.08505	33.075340	104.02739	1.3993562	1.4724075	1.3864077
22.3900	22.3950	1	0	279.45371	33.119350	104.31631	1.3863296	1.4627275	1.3784888
22.3950	22.4000	1	0	280.20568	33.208797	104.55968	1.3775446	1.4551880	1.3712628
22.4000	22.4050	3	0	281.11221	33.316566	104.78480	1.3704634	1.4485071	1.3643129
22.4050	22.4100	2	0	281.93439	33.414299	105.03201	1.3611709	1.4431958	1.3586579
22.4100	22.4150	3	0	282.44647	33.475139	105.36128	1.3436940	1.4429341	1.3577758
22.4150	22.4200	3	0	282.95836	33.535955	105.69042	1.3262237	1.4426725	1.3568941
22.4200	22.4250	3	1	283.66974	33.620290	106.03345	1.3267268	1.4432347	1.3600068
22.4250	22.4300	5	0	284.46104	33.714046	106.38187	1.3344651	1.4441283	1.3647257
22.4300	22.4350	2	1	285.23486	33.805747	106.71659	1.3395994	1.4456028	1.3687524
22.4350	22.4400	1	3	285.94430	33.889873	107.00072	1.3351000	1.4492273	1.3702185
22.4400	22.4450	2	0	286.65374	33.974000	107.28484	1.3306005	1.4528519	1.3716846
22.4450	22.4500	4	1	286.91482	34.005006	107.43577	1.3255817	1.4515347	1.3711615
22.4500	22.4550	1	0	286.99574	34.014669	107.53319	1.3203533	1.4482312	1.3698387
22.4550	22.4600	2	0	287.23450	34.043036	107.65381	1.3175061	1.4458566	1.3690565
22.4600	22.4650	1	0	288.05568	34.140427	107.85989	1.3234572	1.4469166	1.3702716
22.4650	22.4700	5	0	288.87686	34.237818	108.06597	1.3294083	1.4479765	1.3714867
22.4700	22.4750	1	1	289.52367	34.314512	108.31338	1.3360533	1.4503523	1.3740088
22.4750	22.4800	1	0	290.10014	34.382858	108.57739	1.3429767	1.4532576	1.3770571
22.4800	22.4850	1	1	290.41525	34.420230	108.73611	1.3510450	1.4539368	1.3781303
22.4850	22.4900	1	0	289.76643	34.343371	108.50661	1.3633492	1.4464033	1.3719180
22.4900	22.4950	2	0	289.11736	34.266482	108.27701	1.3756581	1.4388669	1.3657034
22.4950	22.5000	2	0	289.17091	34.272871	108.34203	1.3835328	1.4379138	1.3631696
22.5000	22.5050	1	0	289.50729	34.312782	108.52567	1.3896270	1.4396101	1.3621159
22.5050	22.5100	0	0	289.64291	34.328909	108.62098	1.3970012	1.4393833	1.3600304
22.5100	22.5150	0	1	289.03694	34.257181	108.39007	1.4091190	1.4320503	1.3541286
22.5150	22.5200	1	1	288.43119	34.185481	108.15926	1.4212322	1.4247201	1.3482290
22.5200	22.5250	2	0	288.43151	34.185645	107.95595	1.4255706	1.4201017	1.3433609
22.5250	22.5300	1	0	288.67603	34.214765	107.76364	1.4267778	1.4165742	1.3389065
22.5300	22.5350	1	0	288.64327	34.211021	107.57252	1.4272281	1.4121522	1.3338941
22.5350	22.5400	1	0	287.58382	34.085592	107.38545	1.4248772	1.4044105	1.3268067
22.5400	22.5450	2	0	286.52477	33.960210	107.19846	1.4225271	1.3966718	1.3197220
22.5450	22.5500	2	0	285.84600	33.879896	106.94112	1.4184962	1.3861916	1.3114027
22.5500	22.5550	1	0	285.32089	33.817792	106.65557	1.4137900	1.3746120	1.3025902
22.5550	22.5600	1	1	284.70257	33.744642	106.34677	1.4082957	1.3631174	1.2932827
22.5600	22.5650	1	0	283.73886	33.630563	105.95177	1.3998814	1.3519336	1.2821385
22.5650	22.5700	1	1	282.77516	33.516483	105.55676	1.3914671	1.3407498	1.2709944
22.5700	22.5750	2	0	281.95291	33.419173	105.20847	1.3829963	1.3265949	1.2614220
22.5750	22.5800	1	0	281.18742	33.328593	104.87891	1.3745015	1.3112429	1.2524804
22.5800	22.5850	1	0	280.39386	33.234678	104.52179	1.3661102	1.2960116	1.2429833
22.5850	22.5900	5	0	279.49794	33.128608	104.06347	1.3581162	1.2812538	1.2314501
22.5900	22.5950	2	0	278.60201	33.022538	103.60515	1.3501222	1.2664961	1.2199169
22.5950	22.6000	3	0	277.29332	32.867506	103.10003	1.3410081	1.2531035	1.2127494
22.6000	22.6050	2	1	275.81832	32.692746	102.57611	1.3314434	1.2402636	1.2073442
22.6050	22.6100	4	0	274.42750	32.527970	102.06057	1.3220771	1.2266230	1.2002833
22.6100	22.6150	3	0	273.34616	32.399897	101.57528	1.3134317	1.2100006	1.1870869
22.6150	22.6200	0	1	272.26440	32.271775	101.08980	1.3047831	1.1933719	1.1738854
22.6200	22.6250	1	0	270.76409	32.094080	100.47251	1.2931014	1.1785141	1.1605738
22.6250	22.6300	0	0	269.09426	31.896306	99.801759	1.2801909	1.1643622	1.1472106
22.6300	22.6350	0	0	267.35195	31.689963	99.098488	1.2662724	1.1500898	1.1325184
22.6350	22.6400	2	0	265.33811	31.451521	98.273551	1.2485964	1.1353455	1.1128791
22.6400	22.6450	0	0	263.32505	31.213170	97.448929	1.2309271	1.1206068	1.0932473
22.6450	22.6500	1	1	261.20787	30.962562	96.475066	1.2104229	1.1127291	1.0701113
22.6500	22.6550	1	0	259.04786	30.706912	95.440590	1.1887665	1.1076177	1.0455522
22.6550	22.6600	2	0	257.02805	30.467863	94.502558	1.1682772	1.1025930	1.0221147
22.6600	22.6650	3	0	255.52391	30.289882	93.920071	1.1520738	1.0978804	1.0027895
22.6650	22.6700	5	0	254.02033	30.111968	93.337806	1.1358766	1.0931696	0.98347177
22.6700	22.6750	0	0	251.90270	29.861184	92.451931	1.1192855	1.0893428	0.96618496
22.6750	22.6800	2	0	249.53869	29.581163	91.444155	1.1025443	1.0858743	0.94972601
22.6800	22.6850	2	0	247.09640	29.291901	90.421079	1.0844052	1.0802236	0.93050851
22.6850	22.6900	3	0	244.36317	28.968292	89.340928	1.0610799	1.0664855	0.90106344
22.6900	22.6950	2	0	241.62995	28.644682	88.260777	1.0377545	1.0527475	0.87161836
22.6950	22.7000	5	0	239.46376	28.388431	87.293523	1.0132748	1.0325772	0.85436231
22.7000	22.7050	2	0	237.52545	28.159249	86.371558	0.98832681	1.0098151	0.84200943
22.7050	22.7100	2	0	235.49591	27.919238	85.420831	0.96351072	0.98712344	0.82912604
22.7100	22.7150	7	0	233.13247	27.639592	84.365407	0.93922716	0.96473354	0.81430314
22.7150	22.7200	2	0	230.76903	27.359946	83.309982	0.91494360	0.94234364	0.79948024
22.7200	22.7250	7	1	228.46531	27.087322	82.279837	0.89284741	0.92038278	0.78910660
22.7250	22.7300	4	0	226.18605	26.817575	81.260056	0.87163759	0.89859848	0.78053054
22.7300	22.7350	3	0	223.90767	26.547904	80.250291	0.85115999	0.87756392	0.77262123
22.7350	22.7400	3	0	221.62931	26.278139	79.276176	0.83336354	0.85927453	0.76716847
22.7400	22.7450	4	0	219.35009	26.008270	78.301690	0.81556031	0.84097817	0.76171362
22.7450	22.7500	1	0	217.40251	25.777634	77.571146	0.80137281	0.82639271	0.75473699
22.7500	22.7550	1	0	215.58769	25.562706	76.938637	0.78863660	0.81329674	0.74714259
22.7550	22.7600	0	0	213.73015	25.342717	76.253779	0.77556666	0.79985734	0.73876476
22.7600	22.7650	1	0	211.71081	25.103565	75.373524	0.76123537	0.78512004	0.72746614
22.7650	22.7700	3	0	209.69225	24.864503	74.493604	0.74690956	0.77038836	0.71617182
22.7700	22.7750	2	0	207.65040	24.622737	73.638470	0.73150542	0.75455292	0.70235957
22.7750	22.7800	1	0	205.59838	24.379787	72.793017	0.71566002	0.73826578	0.68752539
22.7800	22.7850	3	0	203.55351	24.137687	71.941117	0.69990727	0.72207309	0.67267809
22.7850	22.7900	3	0	201.53151	23.898300	71.063802	0.68446951	0.70620122	0.65775553
22.7900	22.7950	0	0	199.51027	23.659005	70.186822	0.66903764	0.69033540	0.64283865
22.7950	22.8000	2	0	197.20978	23.386588	69.221442	0.65287152	0.67371558	0.62721728
22.8000	22.8050	0	0	194.79784	23.100952	68.220905	0.63641775	0.65680039	0.61131998
22.8050	22.8100	3	0	192.53487	22.832989	67.282426	0.62038546	0.64031535	0.59582477
22.8100	22.8150	3	0	190.82424	22.630559	66.574048	0.60591224	0.62542143	0.58181680
22.8150	22.8200	2	0	189.11362	22.428128	65.865669	0.59143903	0.61052751	0.56780884
22.8200	22.8250	1	0	187.08098	22.187515	65.004226	0.57594068	0.59458554	0.55282857
22.8250	22.8300	1	0	184.91811	21.931461	64.080895	0.56002636	0.57821830	0.53745371
22.8300	22.8350	0	0	182.66165	21.664302	63.128060	0.54401323	0.56174694	0.52198714
22.8350	22.8400	1	0	180.06191	21.356408	62.067426	0.52766217	0.54491875	0.50620795
22.8400	22.8450	2	0	177.46217	21.048514	61.006791	0.51131110	0.52809056	0.49042876
22.8450	22.8500	2	0	175.11182	20.770180	60.035899	0.49634078	0.51267895	0.47598083
22.8500	22.8550	1	0	172.86265	20.503840	59.101437	0.48193099	0.49784241	0.46207333
22.8550	22.8600	1	0	170.48518	20.222320	58.118532	0.46651769	0.48197327	0.44719856
22.8600	22.8650	1	0	167.62863	19.884128	56.954633	0.44736215	0.46225335	0.42871662
22.8650	22.8700	2	0	164.77098	19.545807	55.790290	0.42819931	0.44252590	0.41022762
22.8700	22.8750	1	1	161.75134	19.188393	54.530984	0.40726063	0.42096767	0.39003118
22.8750	22.8800	0	0	158.66465	18.823077	53.232647	0.38559348	0.39865844	0.36913431
22.8800	22.8850	0	0	155.77099	18.480624	52.000080	0.36516353	0.37762146	0.34943170
22.8850	22.8900	0	1	153.58842	18.222402	51.009354	0.34928797	0.36126782	0.33412547
22.8900	22.8950	0	0	151.40669	17.964278	50.019007	0.33341846	0.34492042	0.31882508
22.8950	22.9000	4	0	148.77301	17.652414	48.984707	0.31876760	0.32981959	0.30472130
22.9000	22.9050	1	0	145.95548	17.318687	47.932230	0.30460421	0.31521736	0.29109627
22.9050	22.9100	3	1	142.97629	16.965764	46.815761	0.29041568	0.30058610	0.27745114
22.9100	22.9150	1	0	139.39117	16.540882	45.459537	0.27610821	0.28582068	0.26370684
22.9150	22.9200	0	0	135.80741	16.116163	44.103830	0.26180619	0.27106089	0.24996777
22.9200	22.9250	1	0	132.50550	15.724844	42.869751	0.24899580	0.25783963	0.23766761
22.9250	22.9300	1	0	129.31921	15.347226	41.685462	0.23679479	0.24524690	0.22595524
22.9300	22.9350	1	0	126.00036	14.953795	40.482587	0.22537965	0.23346097	0.21500429
22.9350	22.9400	2	2	122.18756	14.501437	39.210178	0.21688112	0.22466925	0.20687918
22.9400	22.9450	0	0	118.37477	14.049078	37.937769	0.20838259	0.21587753	0.19875406
22.9450	22.9500	0	0	115.29056	13.682958	36.921048	0.20387856	0.21120639	0.19446947
22.9500	22.9550	1	0	112.49989	13.351583	36.007355	0.20098582	0.20819738	0.19173405
22.9550	22.9600	2	0	109.68504	13.017315	35.106301	0.19834385	0.20544608	0.18924113
22.9600	22.9650	0	0	106.78553	12.672918	34.253756	0.19663691	0.20365573	0.18765233
22.9650	22.9700	1	1	103.88602	12.328521	33.401211	0.19492998	0.20186538	0.18606353
22.9700	22.9750	0	0	101.58279	12.054826	32.738156	0.19526750	0.20218507	0.18643823
22.9750	22.9800	1	0	99.521253	11.809789	32.151897	0.19643242	0.20335871	0.18760756
22.9800	22.9850	0	0	97.694725	11.592630	31.644377	0.19827033	0.20522710	0.18942291
22.9850	22.9900	1	1	96.738170	11.478671	31.428490	0.20260960	0.20967767	0.19363942
22.9900	22.9950	1	1	95.781250	11.364669	31.212520	0.20695051	0.21412993	0.19785755
22.9950	23.0000	0	0	95.268229	11.303290	31.167535	0.21339525	0.22074933	0.20410463
