# do not edit -- automatically generated Thu Oct 10 10:40:11 2019 from /susfu/kashyap/solar/ISSI/Capella_O7/binned_17t23.pro
# 
# events in wavelength region [17.00,23.00] Ang
# 
# BACKSCAL = 15.6250
#columns are:
#WLOW: wavelength grid bin lower bound [Angstrom]
#WHIGH: wavelength grid bin upper bound [Angstrom]
#SRCCT: counts in bin [ct]
#BKGCT: background counts in bin [ct]
#EA{p|n}_OBSID: effective area for each ObsID [cm^2 ksec]
WLOW	WHIGH	SRCCT	BKGCT	EAn_00055	EAn_08319	EAn_18358	EAn_18360	EAn_18362
N	N	N	N	N	N	N	N
17.0000	17.0050	30	5	791.27991	445.68037	14.629195	14.700180	13.975778
17.0050	17.0100	46	8	790.63933	444.85838	14.612325	14.618081	13.931523
17.0100	17.0150	55	9	789.98902	443.97903	14.529793	14.602654	13.906761
17.0150	17.0200	91	10	789.33896	443.10002	14.447292	14.587233	13.882008
17.0200	17.0250	105	8	788.71927	442.37896	14.423758	14.578801	13.854168
17.0250	17.0300	143	9	788.11201	441.72343	14.424783	14.573278	13.825031
17.0300	17.0350	226	19	787.50619	441.06665	14.401193	14.556377	13.797271
17.0350	17.0400	260	12	786.90615	440.40529	14.282826	14.495671	13.774828
17.0400	17.0450	313	17	786.30612	439.74392	14.164459	14.434965	13.752385
17.0450	17.0500	416	26	785.73270	439.22189	14.120214	14.405183	13.749051
17.0500	17.0550	440	29	785.17068	438.75817	14.106866	14.388297	13.753678
17.0550	17.0600	419	31	784.61218	438.28056	14.101082	14.363093	13.744694
17.0600	17.0650	429	37	784.06708	437.74917	14.124484	14.305776	13.683183
17.0650	17.0700	358	25	783.52197	437.21779	14.147887	14.248460	13.621673
17.0700	17.0750	321	26	783.02056	436.90310	14.101379	14.252137	13.633633
17.0750	17.0800	340	22	782.53724	436.67853	14.025777	14.281192	13.676163
17.0800	17.0850	346	20	782.04632	436.43423	13.964552	14.292235	13.701198
17.0850	17.0900	349	26	781.52696	436.11430	13.958905	14.233770	13.658695
17.0900	17.0950	388	22	781.00760	435.79437	13.953257	14.175304	13.616192
17.0950	17.1000	406	21	780.48499	435.45667	13.922548	14.160597	13.624482
17.1000	17.1050	421	32	779.96110	435.11162	13.881384	14.164154	13.653969
17.1050	17.1100	397	24	779.42806	434.71715	13.841536	14.163188	13.668362
17.1100	17.1150	330	17	778.85891	434.13155	13.806704	14.144776	13.624567
17.1150	17.1200	239	12	778.28954	433.54573	13.771858	14.126358	13.580755
17.1200	17.1250	187	12	777.73072	432.99350	13.738324	14.066587	13.554438
17.1250	17.1300	131	14	777.17671	432.45567	13.705362	13.989648	13.535425
17.1300	17.1350	108	12	776.63118	431.95801	13.667155	13.935263	13.518841
17.1350	17.1400	83	6	776.12005	431.61699	13.608793	13.968186	13.511692
17.1400	17.1450	63	5	775.60911	431.27611	13.550454	14.001096	13.504546
17.1450	17.1500	54	4	775.12680	431.08234	13.559247	13.997403	13.489124
17.1500	17.1550	42	9	774.65625	430.94990	13.596059	13.978433	13.470243
17.1550	17.1600	48	6	774.19007	430.83967	13.614359	13.963271	13.455910
17.1600	17.1650	40	7	773.74092	430.81517	13.561244	13.962801	13.459123
17.1650	17.1700	15	4	773.29177	430.79067	13.508129	13.962331	13.462337
17.1700	17.1750	25	3	772.78388	430.39841	13.507528	13.926927	13.446726
17.1750	17.1800	24	5	772.25175	429.85288	13.528842	13.876963	13.423268
17.1800	17.1850	12	7	771.72239	429.31457	13.528951	13.834872	13.395486
17.1850	17.1900	17	1	771.20351	428.80398	13.446992	13.823234	13.350961
17.1900	17.1950	14	4	770.68463	428.29339	13.365033	13.811596	13.306437
17.1950	17.2000	8	4	770.14046	427.65098	13.296752	13.786524	13.280386
17.2000	17.2050	12	2	769.58565	426.95355	13.234160	13.755851	13.262030
17.2050	17.2100	17	4	769.05827	426.28672	13.189504	13.720943	13.240937
17.2100	17.2150	24	5	768.63781	425.73939	13.214219	13.669742	13.209316
17.2150	17.2200	17	5	768.21735	425.19205	13.238935	13.618541	13.177695
17.2200	17.2250	10	3	767.80336	423.49977	13.215999	13.621256	13.175244
17.2250	17.2300	11	3	767.39213	421.32918	13.173150	13.646506	13.184986
17.2300	17.2350	16	5	766.98486	418.65158	13.136826	13.660004	13.184509
17.2350	17.2400	13	2	766.59230	414.01065	13.125667	13.628107	13.144541
17.2400	17.2450	11	0	766.19959	409.36796	13.114503	13.596198	13.104557
17.2450	17.2500	11	4	765.79563	402.95954	13.079717	13.561817	13.088928
17.2500	17.2550	11	1	765.38730	395.81997	13.035111	13.526431	13.083463
17.2550	17.2600	7	1	764.93979	388.94058	12.989492	13.497433	13.071902
17.2600	17.2650	7	0	764.34193	383.08870	12.940087	13.493249	13.036776
17.2650	17.2700	8	5	763.74430	377.23906	12.890700	13.489067	13.001664
17.2700	17.2750	8	2	763.01145	372.04884	12.871058	13.435306	12.950732
17.2750	17.2800	8	0	762.22184	367.13211	12.863836	13.360812	12.893172
17.2800	17.2850	8	0	761.42965	362.34353	12.837140	13.297032	12.845984
17.2850	17.2900	10	1	760.62776	358.05168	12.735243	13.274653	12.838869
17.2900	17.2950	7	1	759.82588	353.75982	12.633345	13.252274	12.831755
17.2950	17.3000	9	3	759.05096	350.35450	12.603749	13.208517	12.788765
17.3000	17.3050	7	2	758.28773	347.32149	12.604383	13.155851	12.730807
17.3050	17.3100	7	0	757.56500	344.27720	12.581615	13.113087	12.683115
17.3100	17.3150	7	1	756.99900	341.18801	12.468127	13.108693	12.675199
17.3150	17.3200	9	0	756.43300	338.09881	12.354640	13.104300	12.667283
17.3200	17.3250	10	1	755.89638	335.25835	12.333313	13.076726	12.649697
17.3250	17.3300	10	3	755.37195	332.52122	12.350439	13.039475	12.628074
17.3300	17.3350	12	2	754.84984	329.77805	12.355912	13.004273	12.610645
17.3350	17.3400	4	2	754.33765	327.01655	12.316246	12.977069	12.609490
17.3400	17.3450	6	2	753.82547	324.25506	12.276580	12.949866	12.608334
17.3450	17.3500	6	0	753.30910	322.12010	12.194621	12.941469	12.594459
17.3500	17.3550	7	0	752.79107	320.24772	12.094972	12.940946	12.575263
17.3550	17.3600	9	0	752.24170	318.69082	12.010048	12.925475	12.551166
17.3600	17.3650	9	1	751.57027	318.35251	11.981982	12.852127	12.508067
17.3650	17.3700	18	0	750.89858	318.01408	11.953905	12.778751	12.464952
17.3700	17.3750	8	2	750.19104	318.44322	11.810730	12.734724	12.432547
17.3750	17.3800	16	0	749.46907	319.19259	11.619597	12.702988	12.404640
17.3800	17.3850	16	1	748.75107	320.77093	11.452995	12.666641	12.372890
17.3850	17.3900	9	1	748.05060	325.56302	11.382132	12.612500	12.326316
17.3900	17.3950	17	3	747.35039	330.35329	11.311295	12.558379	12.279760
17.3950	17.4000	10	2	746.67057	333.64757	11.196696	12.503516	12.242996
17.4000	17.4050	5	1	745.99904	336.31672	11.063730	12.448322	12.210319
17.4050	17.4100	12	2	745.33063	338.88161	10.938714	12.403002	12.182360
17.4100	17.4150	18	3	744.67456	341.04190	10.844530	12.395930	12.172678
17.4150	17.4200	9	0	744.01848	343.20219	10.750345	12.388858	12.162996
17.4200	17.4250	8	2	743.38677	344.65274	10.723920	12.349061	12.126823
17.4250	17.4300	5	0	742.76560	345.80556	10.725858	12.295594	12.079585
17.4300	17.4350	8	3	742.13758	346.81914	10.715675	12.247576	12.040781
17.4350	17.4400	8	3	741.48275	347.29240	10.658420	12.220703	12.034712
17.4400	17.4450	9	3	740.82792	347.76565	10.601166	12.193830	12.028644
17.4450	17.4500	7	1	740.18759	348.64372	10.629420	12.152119	11.983151
17.4500	17.4550	7	1	739.55322	349.69121	10.693434	12.104197	11.921167
17.4550	17.4600	10	4	738.91169	350.44459	10.742650	12.056959	11.867554
17.4600	17.4650	7	0	738.24354	350.05545	10.734356	12.012456	11.846525
17.4650	17.4700	7	0	737.57539	349.66630	10.726062	11.967954	11.825496
17.4700	17.4750	15	1	736.61772	349.88950	10.746886	11.921418	11.771618
17.4750	17.4800	9	1	735.53884	350.36933	10.779911	11.874037	11.703981
17.4800	17.4850	8	2	734.45924	350.65804	10.824152	11.821416	11.638138
17.4850	17.4900	10	4	733.37526	350.20603	10.911951	11.748392	11.579161
17.4900	17.4950	6	2	732.29087	349.75386	10.999783	11.675341	11.520161
17.4950	17.5000	10	2	731.21653	349.11416	11.047339	11.644022	11.482685
17.5000	17.5050	15	2	730.14722	348.39652	11.078014	11.630179	11.454241
17.5050	17.5100	12	1	729.21367	347.97668	11.135370	11.598896	11.420436
17.5100	17.5150	10	2	728.81056	348.71557	11.296259	11.499919	11.365898
17.5150	17.5200	12	3	728.40760	349.45417	11.457086	11.400980	11.311380
17.5200	17.5250	9	1	728.36442	349.47532	11.548447	11.341202	11.262285
17.5250	17.5300	8	3	728.47198	349.19588	11.610737	11.297808	11.215443
17.5300	17.5350	9	2	728.58569	349.09143	11.683971	11.248534	11.169108
17.5350	17.5400	13	0	728.72324	349.66514	11.799583	11.176489	11.124759
17.5400	17.5450	9	2	728.86080	350.23885	11.915195	11.104443	11.080411
17.5450	17.5500	7	1	728.95015	350.04386	12.029220	10.995860	11.014611
17.5500	17.5550	8	0	729.01928	349.52699	12.142519	10.872032	10.939863
17.5550	17.5600	13	1	728.95527	349.01836	12.236379	10.751161	10.871777
17.5600	17.5650	5	0	728.37345	348.54158	12.254665	10.641748	10.829582
17.5650	17.5700	13	3	727.79163	348.06481	12.272951	10.532335	10.787388
17.5700	17.5750	8	2	727.20569	347.99657	12.303605	10.401877	10.700134
17.5750	17.5800	8	1	726.61793	348.09930	12.339441	10.262590	10.594007
17.5800	17.5850	10	0	726.02927	347.99125	12.365372	10.128254	10.501682
17.5850	17.5900	16	3	725.43822	347.06451	12.352779	10.013400	10.463150
17.5900	17.5950	24	2	724.84718	346.13777	12.340186	9.8985463	10.424617
17.5950	17.6000	24	4	724.26646	346.14957	12.329444	9.8549608	10.354242
17.6000	17.6050	29	2	723.69019	346.55529	12.319482	9.8412954	10.270513
17.6050	17.6100	47	1	723.11927	346.64603	12.305979	9.8286769	10.181633
17.6100	17.6150	48	7	722.56833	345.51318	12.278706	9.8201068	10.072611
17.6150	17.6200	56	2	722.01718	344.37990	12.251423	9.8115335	9.9635465
17.6200	17.6250	54	6	721.49688	344.13555	12.219868	9.8331820	9.8582064
17.6250	17.6300	49	3	720.98989	344.26354	12.186549	9.8674665	9.7545059
17.6300	17.6350	56	1	720.48426	344.34359	12.153692	9.8982629	9.6464056
17.6350	17.6400	37	2	719.98540	344.23666	12.122732	9.9153800	9.5214876
17.6400	17.6450	39	2	719.48673	344.12977	12.091784	9.9324905	9.3966172
17.6450	17.6500	21	3	718.98312	343.61363	12.059377	9.9912250	9.2616042
17.6500	17.6550	16	2	718.47723	342.92547	12.026345	10.067459	9.1222810
17.6550	17.6600	14	0	717.97175	342.34777	11.992060	10.137814	9.0135375
17.6600	17.6650	16	2	717.46804	342.19946	11.952924	10.185299	9.0236585
17.6650	17.6700	25	4	716.96432	342.05115	11.913789	10.232785	9.0337795
17.6700	17.6750	15	2	716.44612	341.04593	11.867315	10.292398	9.0339297
17.6750	17.6800	4	1	715.92212	339.68143	11.817784	10.357072	9.0298932
17.6800	17.6850	8	0	715.31250	338.51939	11.765158	10.424187	9.0327998
17.6850	17.6900	6	1	714.36862	338.14677	11.700431	10.500858	9.0627963
17.6900	17.6950	8	0	713.42474	337.77415	11.635704	10.577529	9.0927929
17.6950	17.7000	3	2	712.41044	336.54188	11.559185	10.628775	9.0933246
17.7000	17.7050	11	0	711.36646	334.94889	11.477707	10.669367	9.0814992
17.7050	17.7100	11	2	710.36924	333.37303	11.402834	10.721200	9.0822559
17.7100	17.7150	10	1	709.55606	331.86688	11.353824	10.816716	9.1320182
17.7150	17.7200	4	1	708.74288	330.36073	11.304813	10.912232	9.1817804
17.7200	17.7250	6	1	707.97617	329.32430	11.286697	11.040055	9.2469821
17.7250	17.7300	8	0	707.22915	328.48565	11.281582	11.181450	9.3186689
17.7300	17.7350	6	3	706.49101	327.48726	11.277595	11.302964	9.3952909
17.7350	17.7400	9	1	705.78640	325.86498	11.278002	11.347193	9.4912566
17.7400	17.7450	8	1	705.08152	324.24208	11.278408	11.391438	9.5872589
17.7450	17.7500	7	1	704.40262	323.66435	11.282392	11.436257	9.7114243
17.7500	17.7550	11	0	703.73514	323.52547	11.287872	11.481281	9.8473081
17.7550	17.7600	13	2	703.07441	323.14616	11.294361	11.521032	9.9850625
17.7600	17.7650	12	3	702.44201	321.83003	11.304762	11.540092	10.129704
17.7650	17.7700	10	2	701.80984	320.51440	11.315158	11.559146	10.274290
17.7700	17.7750	5	3	701.11063	319.33847	11.304084	11.550868	10.385512
17.7750	17.7800	17	0	700.38295	318.22084	11.283977	11.531094	10.482746
17.7800	17.7850	10	3	699.63190	316.98459	11.256835	11.504226	10.582337
17.7850	17.7900	8	4	698.79010	315.28661	11.202292	11.449729	10.691075
17.7900	17.7950	10	0	697.94830	313.58863	11.147749	11.395231	10.799813
17.7950	17.8000	11	1	697.11127	311.83252	11.092732	11.340201	10.825311
17.8000	17.8050	14	1	696.27670	310.05290	11.037544	11.284977	10.815781
17.8050	17.8100	8	0	695.43760	308.39148	10.980437	11.227818	10.802728
17.8100	17.8150	7	1	694.58048	307.19119	10.915813	11.163079	10.775906
17.8150	17.8200	3	0	693.72337	305.99090	10.851188	11.098340	10.749085
17.8200	17.8250	5	0	692.93988	304.17640	10.803252	11.050436	10.713967
17.8250	17.8300	5	1	692.18720	302.10367	10.762317	11.009594	10.675359
17.8300	17.8350	3	1	691.45690	300.37790	10.726883	10.974289	10.642100
17.8350	17.8400	9	2	690.81533	300.00918	10.712982	10.960650	10.629774
17.8400	17.8450	4	1	690.17376	299.64046	10.699080	10.947011	10.617448
17.8450	17.8500	8	1	689.62533	299.23895	10.708221	10.956554	10.627483
17.8500	17.8550	4	1	689.11621	298.82370	10.727063	10.975858	10.646934
17.8550	17.8600	4	0	688.63249	298.44101	10.752468	11.001776	10.672791
17.8600	17.8650	8	0	688.24726	298.18485	10.803535	11.053565	10.723697
17.8650	17.8700	4	2	687.86188	297.92859	10.854621	11.105374	10.774623
17.8700	17.8750	5	1	687.47582	298.17858	10.907003	11.158450	10.826740
17.8750	17.8800	4	0	687.08976	298.64117	10.959890	11.212019	10.879318
17.8800	17.8850	5	0	686.66117	298.72701	10.997144	11.249838	10.916647
17.8850	17.8900	0	0	686.06741	297.33871	10.973136	11.225935	10.894214
17.8900	17.8950	3	1	685.47389	295.95095	10.949136	11.202040	10.871789
17.8950	17.9000	4	0	684.79139	294.86726	10.900234	11.153031	10.825015
17.9000	17.9050	2	1	684.07116	293.91125	10.840823	11.093423	10.767965
17.9050	17.9100	5	1	683.38681	292.88518	10.790521	11.042992	10.719796
17.9100	17.9150	7	2	682.84272	291.58609	10.775788	11.028391	10.706300
17.9150	17.9200	0	0	682.29863	290.28701	10.761054	11.013791	10.692804
17.9200	17.9250	2	1	681.99419	290.20755	10.805311	11.058677	10.736949
17.9250	17.9300	2	1	681.79082	290.64159	10.874378	11.128583	10.805338
17.9300	17.9350	2	0	681.61364	291.35634	10.960030	11.215188	10.889898
17.9350	17.9400	5	2	681.53892	293.17030	11.110641	11.367203	11.037807
17.9400	17.9450	2	0	681.46420	294.98426	11.261253	11.519218	11.185716
17.9450	17.9500	5	0	681.08574	295.58290	11.366265	11.625219	11.289037
17.9500	17.9550	7	0	680.57949	295.67053	11.452117	11.711885	11.373623
17.9550	17.9600	3	1	680.01389	295.59379	11.512146	11.772535	11.432980
17.9600	17.9650	2	3	679.21734	294.87463	11.471107	11.731362	11.393590
17.9650	17.9700	6	1	678.42079	294.15547	11.430067	11.690188	11.354200
17.9700	17.9750	1	0	677.67707	292.27234	11.337793	11.597099	11.263945
17.9750	17.9800	3	1	676.95576	289.89833	11.223913	11.482118	11.152241
17.9800	17.9850	4	2	676.26423	287.87018	11.124929	11.382146	11.055083
17.9850	17.9900	6	0	675.68816	287.19210	11.084074	11.340749	11.014689
17.9900	17.9950	3	1	675.11186	286.51376	11.043203	11.299335	10.974280
17.9950	18.0000	9	0	674.72929	287.28708	11.111025	11.367390	11.039988
18.0000	18.0050	4	1	674.42856	288.67076	11.224541	11.481465	11.150309
18.0050	18.0100	2	1	674.25793	290.40232	11.372534	11.630255	11.294272
18.0100	18.0150	7	1	674.59772	293.49209	11.655207	11.914657	11.569657
18.0150	18.0200	5	0	674.93738	296.58069	11.937773	12.198951	11.844938
18.0200	18.0250	4	1	675.64145	301.07885	12.282144	12.545258	12.180287
18.0250	18.0300	2	0	676.49949	306.17328	12.652716	12.917855	12.541102
18.0300	18.0350	3	1	677.32398	310.91005	13.020366	13.287415	12.898959
18.0350	18.0400	5	1	678.01693	314.24660	13.376448	13.644957	13.245116
18.0400	18.0450	2	0	678.70988	317.58315	13.732530	14.002499	13.591274
18.0450	18.0500	2	3	678.88783	320.30995	14.003990	14.274815	13.854765
18.0500	18.0550	2	1	678.84841	322.77801	14.239600	14.511024	14.083234
18.0550	18.0600	3	1	678.75996	324.87967	14.453700	14.725614	14.290756
18.0600	18.0650	4	0	678.47913	325.54452	14.583480	14.855460	14.416164
18.0650	18.0700	5	0	678.19830	326.20937	14.713259	14.985306	14.541573
18.0700	18.0750	6	0	677.82129	326.07227	14.783187	15.055177	14.608836
18.0750	18.0800	5	0	677.40370	325.59733	14.827913	15.099794	14.651616
18.0800	18.0850	7	0	676.95758	324.99161	14.860351	15.133748	14.684084
18.0850	18.0900	6	4	676.40053	323.87492	14.844609	15.125881	14.676113
18.0900	18.0950	15	1	675.84349	322.75822	14.828868	15.118015	14.668141
18.0950	18.1000	9	0	675.04477	319.99837	14.790548	15.095868	14.646347
18.1000	18.1050	12	2	674.14406	316.54471	14.742695	15.067692	14.618715
18.1050	18.1100	5	1	673.22974	313.19164	14.679919	15.036794	14.588443
18.1100	18.1150	11	0	672.26072	310.22791	14.558540	14.995176	14.547773
18.1150	18.1200	5	1	671.29133	307.26305	14.437115	14.953542	14.507089
18.1200	18.1250	9	1	670.60789	302.89667	14.313075	14.918622	14.472941
18.1250	18.1300	11	1	670.04552	297.94275	14.188026	14.886559	14.441576
18.1300	18.1350	5	0	669.60363	293.48564	14.063180	14.856554	14.412216
18.1350	18.1400	3	5	669.63603	290.99247	13.939502	14.834723	14.390816
18.1400	18.1450	7	1	669.66842	288.50026	13.815872	14.812899	14.369424
18.1450	18.1500	6	1	669.50841	287.78668	13.638540	14.786615	14.343675
18.1500	18.1550	6	1	669.26707	287.82422	13.438455	14.758437	14.316074
18.1550	18.1600	1	0	668.88073	288.04645	13.246899	14.726213	14.284545
18.1600	18.1650	3	0	667.92665	288.99195	13.088821	14.678155	14.237638
18.1650	18.1700	7	1	666.97257	289.93744	12.930743	14.630097	14.190732
18.1700	18.1750	1	0	666.24453	291.62807	12.736699	14.584620	14.146362
18.1750	18.1800	5	0	665.61234	293.63239	12.527575	14.540258	14.103087
18.1800	18.1850	5	0	665.05609	295.61647	12.339476	14.502968	14.066640
18.1850	18.1900	5	0	664.79814	297.52173	12.233947	14.493464	14.057020
18.1900	18.1950	3	1	664.54019	299.42700	12.128419	14.483960	14.047400
18.1950	18.2000	6	1	664.07363	301.33606	12.014603	14.452935	14.016989
18.2000	18.2050	6	1	663.51897	303.24703	11.897273	14.412824	13.977801
18.2050	18.2100	8	0	662.89819	305.18809	11.772833	14.372758	13.938660
18.2100	18.2150	3	0	662.01913	307.24356	11.620731	14.332943	13.899779
18.2150	18.2200	2	1	661.14007	309.29903	11.468630	14.293129	13.860898
18.2200	18.2250	5	0	660.31380	311.54751	11.366232	14.254626	13.823245
18.2250	18.2300	7	0	659.50998	313.87726	11.284873	14.216684	13.786117
18.2300	18.2350	8	1	658.75062	316.46847	11.193607	14.179748	13.749974
18.2350	18.2400	3	1	658.16463	320.09014	11.063304	14.146708	13.717647
18.2400	18.2450	1	2	657.57842	323.71319	10.932950	14.113656	13.685308
18.2450	18.2500	3	0	656.99371	327.56771	10.881637	14.080771	13.653113
18.2500	18.2550	3	0	656.41009	331.51703	10.863738	14.047983	13.621005
18.2550	18.2600	1	1	655.82620	335.76737	10.848997	14.013109	13.588922
18.2600	18.2650	4	0	655.24300	341.18929	10.846730	13.970139	13.557036
18.2650	18.2700	1	1	654.66002	346.60915	10.844463	13.927185	13.525162
18.2700	18.2750	1	1	654.07765	350.68474	10.837591	13.871278	13.493421
18.2750	18.2800	6	2	653.49532	354.19324	10.828768	13.809870	13.461725
18.2800	18.2850	0	1	652.93189	357.27402	10.841515	13.728703	13.430457
18.2850	18.2900	5	1	652.44284	358.67517	10.938904	13.570031	13.400886
18.2900	18.2950	2	2	651.95379	360.07631	11.036292	13.411359	13.371315
18.2950	18.3000	6	0	651.46869	360.32969	11.077748	13.267462	13.342378
18.3000	18.3050	6	1	650.98553	360.09728	11.095517	13.129894	13.313726
18.3050	18.3100	1	1	650.50253	359.82693	11.125177	12.975660	13.285250
18.3100	18.3150	4	0	650.01999	359.40701	11.201684	12.755727	13.257460
18.3150	18.3200	2	0	649.53744	358.98708	11.278191	12.535793	13.229671
18.3200	18.3250	3	2	649.05545	358.58883	11.293724	12.332574	13.201931
18.3250	18.3300	7	3	648.57360	358.19967	11.283495	12.136384	13.174209
18.3300	18.3350	5	0	648.09209	357.80609	11.271377	11.949751	13.146522
18.3350	18.3400	7	0	647.61280	357.39584	11.251855	11.801054	13.119024
18.3400	18.3450	3	0	647.13351	356.98559	11.232333	11.652358	13.091527
18.3450	18.3500	4	0	646.50760	356.51108	11.273195	11.513945	13.056580
18.3500	18.3550	4	0	645.81966	356.00942	11.339640	11.379912	13.018481
18.3550	18.3600	4	1	645.11865	355.49636	11.380693	11.251348	12.959134
18.3600	18.3650	4	1	644.36519	354.93769	11.321918	11.144105	12.816108
18.3650	18.3700	3	2	643.61144	354.37881	11.263121	11.036822	12.673027
18.3700	18.3750	2	0	642.85844	353.83212	11.289951	10.911474	12.426772
18.3750	18.3800	4	1	642.10633	353.29100	11.352947	10.778588	12.137104
18.3800	18.3850	5	0	641.35388	352.74759	11.393891	10.649127	11.870302
18.3850	18.3900	5	1	640.60236	352.19678	11.347797	10.533559	11.694429
18.3900	18.3950	1	0	639.85112	351.64617	11.301720	10.418034	11.518624
18.3950	18.4000	6	1	639.07389	351.07988	11.275218	10.308415	11.326591
18.4000	18.4050	6	1	638.28535	350.50673	11.257001	10.201257	11.127610
18.4050	18.4100	6	0	637.52579	349.95323	11.245792	10.100309	10.943851
18.4100	18.4150	5	0	636.88048	349.47720	11.262144	10.023812	10.820017
18.4150	18.4200	5	4	636.23518	349.00118	11.278497	9.9473161	10.696183
18.4200	18.4250	5	0	635.68147	348.56398	11.242880	9.9634421	10.584137
18.4250	18.4300	4	0	635.16685	348.14347	11.185271	10.018790	10.477145
18.4300	18.4350	1	2	634.65242	347.72383	11.142126	10.061618	10.372899
18.4350	18.4400	4	0	634.13851	347.30750	11.156010	10.055086	10.279443
18.4400	18.4450	4	0	633.62461	346.89117	11.169893	10.048555	10.185986
18.4450	18.4500	4	1	633.12353	346.48542	11.140084	10.104426	10.091790
18.4500	18.4550	6	0	632.62780	346.08409	11.091780	10.186715	9.9972660
18.4550	18.4600	6	0	632.13546	345.68311	11.055299	10.269664	9.9017203
18.4600	18.4650	5	0	631.65740	345.28433	11.065482	10.355064	9.8023279
18.4650	18.4700	4	0	631.17934	344.88554	11.075664	10.440463	9.7029354
18.4700	18.4750	6	1	630.59427	344.42848	11.077963	10.495745	9.6122125
18.4750	18.4800	7	1	629.96388	343.94676	11.076918	10.538239	9.5251828
18.4800	18.4850	6	1	629.32105	343.45854	11.064930	10.579422	9.4434461
18.4850	18.4900	15	2	628.62825	342.94393	11.009792	10.615505	9.3824508
18.4900	18.4950	9	0	627.93518	342.42913	10.954633	10.651601	9.3214322
18.4950	18.5000	14	0	627.24266	341.91577	10.947868	10.650092	9.3082422
18.5000	18.5050	11	1	626.55090	341.40341	10.961604	10.632656	9.3153188
18.5050	18.5100	10	2	625.85818	340.89087	10.960256	10.622136	9.3572177
18.5100	18.5150	11	0	625.16377	340.37916	10.899323	10.638969	9.5365559
18.5150	18.5200	7	0	624.46962	339.86765	10.838413	10.655795	9.7158257
18.5200	18.5250	10	1	623.84021	339.39188	10.835065	10.674559	9.7928428
18.5250	18.5300	7	2	623.23805	338.93110	10.856147	10.694153	9.8264886
18.5300	18.5350	6	0	622.68145	338.49529	10.865354	10.712977	9.8729108
18.5350	18.5400	3	0	622.30475	338.15814	10.827737	10.728761	9.9696942
18.5400	18.5450	4	1	621.92805	337.82099	10.790119	10.744545	10.066478
18.5450	18.5500	5	1	621.53681	337.47638	10.767452	10.756476	10.108766
18.5500	18.5550	3	0	621.13962	337.12878	10.751145	10.766766	10.127896
18.5550	18.5600	7	0	620.68567	336.75055	10.740897	10.767881	10.141498
18.5600	18.5650	1	0	620.00709	336.25103	10.754610	10.732714	10.133243
18.5650	18.5700	2	3	619.32852	335.75151	10.768322	10.697547	10.124989
18.5700	18.5750	5	0	618.64966	335.25268	10.730869	10.696176	10.123936
18.5750	18.5800	6	0	617.97056	334.75407	10.671723	10.709130	10.125935
18.5800	18.5850	7	2	617.29143	334.25557	10.628330	10.718015	10.123410
18.5850	18.5900	0	2	616.61342	333.75846	10.647223	10.710816	10.103029
18.5900	18.5950	4	0	615.93542	333.26134	10.666116	10.703617	10.082649
18.5950	18.6000	15	1	615.25791	332.76500	10.632453	10.693570	10.074873
18.6000	18.6050	9	2	614.58071	332.26907	10.576451	10.682313	10.072458
18.6050	18.6100	16	1	613.90143	331.77213	10.528169	10.670671	10.068961
18.6100	18.6150	10	2	613.21287	331.27044	10.510299	10.657493	10.061183
18.6150	18.6200	15	1	612.52405	330.76856	10.492421	10.644309	10.053402
18.6200	18.6250	10	2	611.79980	330.24827	10.488538	10.602858	10.028130
18.6250	18.6300	13	3	611.06108	329.72057	10.490592	10.549455	9.9954616
18.6300	18.6350	21	0	610.32209	329.19283	10.482541	10.506652	9.9694852
18.6350	18.6400	16	0	609.58423	328.66651	10.434496	10.505963	9.9700936
18.6400	18.6450	19	1	608.84665	328.14038	10.386468	10.505274	9.9707018
18.6450	18.6500	18	1	608.10972	327.61547	10.373985	10.496529	9.9522946
18.6500	18.6550	10	0	607.37278	327.09088	10.376612	10.484353	9.9257942
18.6550	18.6600	11	3	606.64064	326.56910	10.362106	10.468337	9.9048652
18.6600	18.6650	6	1	605.92768	326.05864	10.279924	10.437155	9.9059544
18.6650	18.6700	6	0	605.21473	325.54819	10.197741	10.405972	9.9070436
18.6700	18.6750	7	2	604.60311	325.09273	10.187558	10.379950	9.9026859
18.6750	18.6800	13	0	604.03491	324.66091	10.207994	10.356137	9.8960146
18.6800	18.6850	11	0	603.46666	324.22928	10.218161	10.332418	9.8853327
18.6850	18.6900	6	0	602.89797	323.79827	10.187663	10.309062	9.8587617
18.6900	18.6950	11	0	602.32928	323.36726	10.157164	10.285707	9.8321906
18.6950	18.7000	11	4	601.76148	322.93108	10.111590	10.276270	9.8278038
18.7000	18.7050	10	0	601.19396	322.49263	10.059610	10.272740	9.8328323
18.7050	18.7100	4	1	600.62642	322.05251	10.015499	10.257491	9.8285205
18.7100	18.7150	8	4	600.05986	321.60656	10.002622	10.195874	9.7872387
18.7150	18.7200	3	1	599.49330	321.16061	9.9897457	10.134258	9.7459568
18.7200	18.7250	8	1	598.92886	320.71666	9.9598794	10.122626	9.7437478
18.7250	18.7300	3	0	598.36543	320.27363	9.9227836	10.132279	9.7581771
18.7300	18.7350	3	0	597.80434	319.83209	9.8949204	10.136458	9.7646715
18.7350	18.7400	2	0	597.25169	319.39576	9.9035432	10.118982	9.7397825
18.7400	18.7450	3	1	596.69883	318.95926	9.9121692	10.101499	9.7148840
18.7450	18.7500	5	1	596.08224	318.48953	9.8657329	10.062786	9.6944751
18.7500	18.7550	3	0	595.43904	318.00604	9.7959402	10.015083	9.6759891
18.7550	18.7600	8	1	594.76229	317.50480	9.7323393	9.9761542	9.6588879
18.7600	18.7650	4	1	593.95443	316.93464	9.6935010	9.9721626	9.6473332
18.7650	18.7700	6	1	593.14689	316.36470	9.6546774	9.9681726	9.6357830
18.7700	18.7750	1	1	592.05773	315.79629	9.6475875	9.9455252	9.6034588
18.7750	18.7800	3	1	590.84824	315.22830	9.6540069	9.9149248	9.5622767
18.7800	18.7850	3	0	589.38942	314.68686	9.6475017	9.8890266	9.5274299
18.7850	18.7900	3	2	586.94511	314.25057	9.5898861	9.8817343	9.5176500
18.7900	18.7950	4	2	584.50079	313.81427	9.5322705	9.8744420	9.5078701
18.7950	18.8000	6	0	579.55599	313.42735	9.5370815	9.8436593	9.4893977
18.8000	18.8050	4	1	573.54982	313.06165	9.5684549	9.8028973	9.4672364
18.8050	18.8100	9	0	567.44230	312.69785	9.5776469	9.7707217	9.4442669
18.8100	18.8150	5	0	560.92990	312.34150	9.4987388	9.7726385	9.4180789
18.8150	18.8200	5	0	554.41750	311.98514	9.4198307	9.7745554	9.3918908
18.8200	18.8250	8	1	546.85814	311.62953	9.3886984	9.7591389	9.3785191
18.8250	18.8300	6	0	538.85214	311.27417	9.3778863	9.7363457	9.3705976
18.8300	18.8350	4	0	531.05966	310.84081	9.3677902	9.7113588	9.3573365
18.8350	18.8400	6	1	524.12882	310.09893	9.3605534	9.6777185	9.3229228
18.8400	18.8450	5	1	517.19798	309.35706	9.3533166	9.6440781	9.2885090
18.8450	18.8500	4	0	511.14342	307.88794	9.3245116	9.6390012	9.2782455
18.8500	18.8550	3	0	505.46363	306.10884	9.2865111	9.6461092	9.2782853
18.8550	18.8600	6	0	500.00303	303.95459	9.2513964	9.6429282	9.2692171
18.8600	18.8650	3	1	495.40335	300.30939	9.2276725	9.5989405	9.2240171
18.8650	18.8700	3	2	490.80192	296.66280	9.2039396	9.5549361	9.1787999
18.8700	18.8750	4	1	488.39974	291.56130	9.1623416	9.5185571	9.1582421
18.8750	18.8800	3	2	486.93509	285.84467	9.1131744	9.4854502	9.1481918
18.8800	18.8850	7	0	486.06781	280.42203	9.0726569	9.4569249	9.1350276
18.8850	18.8900	6	2	487.57898	276.18505	9.0666637	9.4467077	9.1095189
18.8900	18.8950	5	1	489.08957	271.94969	9.0606729	9.4364944	9.0840199
18.8950	18.9000	7	3	491.09814	268.10545	9.0282546	9.4025489	9.0467265
18.9000	18.9050	8	0	493.31986	264.42656	8.9845527	9.3584688	9.0043886
18.9050	18.9100	7	1	495.77431	260.90967	8.9383575	9.3202911	8.9698827
18.9100	18.9150	13	1	499.15063	258.03649	8.8822929	9.3055321	8.9664461
18.9150	18.9200	19	2	502.52695	255.16330	8.8262283	9.2907731	8.9630094
18.9200	18.9250	17	1	505.28103	252.61251	8.8089247	9.2481758	8.9318334
18.9250	18.9300	25	5	507.76827	250.20060	8.8081600	9.1937302	8.8888450
18.9300	18.9350	38	3	510.07858	247.85174	8.7910873	9.1514452	8.8533030
18.9350	18.9400	49	5	511.68526	245.75307	8.7090722	9.1575660	8.8473978
18.9400	18.9450	96	6	513.29193	243.65440	8.6270571	9.1636868	8.8414925
18.9450	18.9500	92	7	514.98806	241.61554	8.6120363	9.1347016	8.8229070
18.9500	18.9550	141	4	516.72257	239.60184	8.6255534	9.0907560	8.7989165
18.9550	18.9600	169	10	518.20970	237.53679	8.6197299	9.0513519	8.7763160
18.9600	18.9650	204	9	518.71111	235.27171	8.5370752	9.0300661	8.7592808
18.9650	18.9700	221	12	519.21253	233.00663	8.4544205	9.0087803	8.7422455
18.9700	18.9750	243	13	519.53813	231.24521	8.3939090	8.9864576	8.7238063
18.9750	18.9800	222	17	519.78862	229.69913	8.3428621	8.9636959	8.7047707
18.9800	18.9850	202	14	520.06902	228.36568	8.2983579	8.9354485	8.6842914
18.9850	18.9900	151	8	520.46870	227.87464	8.2797699	8.8853724	8.6580475
18.9900	18.9950	123	3	520.86852	227.38340	8.2611749	8.8352772	8.6317936
18.9950	19.0000	76	10	521.05184	228.08649	8.1718432	8.8166228	8.6185146
19.0000	19.0050	61	6	521.14282	229.29768	8.0524544	8.8113724	8.6107715
19.0050	19.0100	52	1	521.27573	230.92050	7.9493009	8.8002836	8.5981319
19.0100	19.0150	44	2	521.57510	234.17662	7.9110728	8.7659924	8.5660436
19.0150	19.0200	36	5	521.87436	237.43149	7.8728593	8.7317143	8.5339675
19.0200	19.0250	22	3	521.44367	239.66597	7.7686092	8.6921599	8.5029275
19.0250	19.0300	23	2	520.70107	241.46552	7.6361165	8.6503369	8.4723181
19.0300	19.0350	18	4	519.95163	243.15866	7.5226038	8.6116818	8.4436418
19.0350	19.0400	16	2	519.17525	244.42819	7.4845828	8.5856340	8.4226609
19.0400	19.0450	9	1	518.39887	245.69772	7.4465618	8.5595861	8.4016800
19.0450	19.0500	13	2	518.38790	246.53176	7.4247540	8.5224566	8.3737327
19.0500	19.0550	9	1	518.70378	247.17938	7.4098814	8.4806152	8.3428258
19.0550	19.0600	10	2	518.94404	247.77591	7.3907272	8.4462274	8.3171858
19.0600	19.0650	9	1	518.88313	248.16907	7.3545071	8.4415226	8.3125203
19.0650	19.0700	10	3	518.82222	248.56223	7.3182870	8.4368178	8.3078547
19.0700	19.0750	9	2	518.90844	249.15342	7.3374185	8.4039883	8.2731988
19.0750	19.0800	5	1	519.05739	249.82914	7.3801547	8.3591613	8.2257495
19.0800	19.0850	7	1	519.12634	250.32499	7.4130624	8.3188463	8.1856271
19.0850	19.0900	7	2	518.87686	250.10432	7.4068061	8.2965590	8.1747303
19.0900	19.0950	2	2	518.62738	249.88365	7.4005497	8.2742717	8.1638335
19.0950	19.1000	5	1	518.36992	250.22222	7.4398393	8.2446178	8.1292294
19.1000	19.1050	6	0	518.10907	250.79993	7.4986027	8.2118180	8.0844912
19.1050	19.1100	3	1	517.80786	251.21827	7.5544399	8.1793459	8.0431113
19.1100	19.1150	2	2	517.34543	251.00261	7.5987095	8.1481288	8.0150419
19.1150	19.1200	4	1	516.88282	250.78686	7.6429961	8.1168999	7.9869617
19.1200	19.1250	2	0	516.68283	250.68594	7.6764185	8.0958498	7.9685992
19.1250	19.1300	2	0	516.59498	250.63404	7.7052055	8.0791442	7.9543848
19.1300	19.1350	3	0	516.47128	250.59063	7.7503530	8.0516601	7.9339866
19.1350	19.1400	4	0	516.20459	250.58113	7.8607462	7.9811880	7.8889330
19.1400	19.1450	3	2	515.93801	250.57163	7.9710972	7.9107428	7.8438967
19.1450	19.1500	1	0	515.28612	250.45029	8.0319287	7.8777157	7.8118277
19.1500	19.1550	3	1	514.46907	250.28103	8.0715900	7.8606903	7.7852963
19.1550	19.1600	0	1	513.77340	250.16009	8.1256833	7.8335290	7.7557075
19.1600	19.1650	3	1	513.56128	250.23160	8.2372186	7.7660207	7.7139568
19.1650	19.1700	1	1	513.34915	250.30311	8.3487538	7.6985125	7.6722060
19.1700	19.1750	6	1	512.95751	249.96430	8.4110974	7.6229061	7.6243166
19.1750	19.1800	1	0	512.48929	249.45015	8.4523652	7.5438768	7.5738274
19.1800	19.1850	6	1	511.98738	249.01280	8.4899145	7.4641435	7.5288537
19.1850	19.1900	3	1	511.35058	248.88234	8.5126100	7.3815649	7.5059167
19.1900	19.1950	3	0	510.71378	248.75189	8.5353055	7.2989862	7.4829798
19.1950	19.2000	2	1	510.48223	248.65550	8.5626052	7.2060400	7.4313328
19.2000	19.2050	2	0	510.42390	248.57366	8.5918777	7.1086463	7.3674035
19.2050	19.2100	1	1	510.30528	248.42157	8.6146478	7.0202818	7.3118196
19.2100	19.2150	4	0	509.94637	247.98950	8.6114304	6.9681105	7.2896384
19.2150	19.2200	6	0	509.58747	247.55744	8.6082130	6.9159393	7.2674572
19.2200	19.2250	2	1	508.90248	247.60977	8.6053118	6.8920019	7.2180971
19.2250	19.2300	6	1	508.07792	247.86958	8.6025465	6.8801618	7.1571037
19.2300	19.2350	3	2	507.38673	247.90438	8.5959832	6.8704131	7.0927439
19.2350	19.2400	1	2	507.22644	247.04175	8.5742608	6.8689911	7.0148589
19.2400	19.2450	2	1	507.06609	246.17880	8.5525301	6.8675687	6.9369442
19.2450	19.2500	2	0	506.40138	245.97459	8.5308674	6.8806782	6.8691180
19.2500	19.2550	1	1	505.52078	246.05220	8.5092302	6.9000074	6.8055972
19.2550	19.2600	3	0	504.76018	246.06781	8.4875933	6.9206208	6.7381414
19.2600	19.2650	8	0	504.48089	245.83535	8.4659905	6.9463401	6.6550455
19.2650	19.2700	4	1	504.20169	245.60299	8.4443959	6.9720495	6.5719813
19.2700	19.2750	2	0	503.70939	245.31834	8.4228498	7.0148488	6.4817386
19.2750	19.2800	4	0	503.12556	245.01117	8.4013162	7.0649886	6.3883850
19.2800	19.2850	1	0	502.49843	244.68412	8.3798091	7.1108282	6.3142282
19.2850	19.2900	2	0	501.69875	244.27784	8.3584161	7.1394917	6.3166999
19.2900	19.2950	3	0	500.89906	243.87156	8.3370232	7.1681552	6.3191717
19.2950	19.3000	3	0	500.51496	243.34465	8.3157096	7.2191057	6.3263796
19.3000	19.3050	1	3	500.30912	242.76634	8.2944417	7.2795773	6.3356128
19.3050	19.3100	3	0	499.94227	242.34596	8.2732299	7.3424065	6.3513091
19.3100	19.3150	3	0	498.93036	242.55798	8.2522347	7.4147030	6.3928983
19.3150	19.3200	1	2	497.91845	242.77000	8.2312395	7.4869995	6.4344876
19.3200	19.3250	1	2	497.45264	242.42508	8.2110457	7.5661713	6.4633764
19.3250	19.3300	5	0	497.22058	241.84165	8.1911916	7.6482999	6.4868320
19.3300	19.3350	2	0	496.92351	241.34038	8.1715036	7.7310637	6.5153470
19.3350	19.3400	2	0	496.36717	241.16851	8.1525165	7.8162093	6.5640320
19.3400	19.3450	1	1	495.81082	240.99664	8.1335295	7.9013548	6.6127170
19.3450	19.3500	2	0	495.32985	240.72282	8.1145998	7.9730822	6.6507592
19.3500	19.3550	3	1	494.88127	240.40534	8.0956978	8.0390444	6.6842317
19.3550	19.3600	5	0	494.44038	240.04940	8.0768309	8.0946035	6.7214316
19.3600	19.3650	3	1	494.02958	239.53931	8.0580756	8.1086872	6.7735797
19.3650	19.3700	5	0	493.61863	239.02903	8.0393132	8.1227762	6.8257476
19.3700	19.3750	4	0	493.15125	238.95811	8.0205569	8.1316146	6.8944907
19.3750	19.3800	2	1	492.65964	239.07537	8.0018002	8.1382056	6.9703445
19.3800	19.3850	1	3	492.12219	239.03277	7.9830520	8.1408239	7.0453926
19.3850	19.3900	5	0	491.40206	238.35011	7.9643667	8.1275313	7.1170996
19.3900	19.3950	4	2	490.68220	237.66772	7.9456886	8.1142439	7.1887792
19.3950	19.4000	4	0	489.98033	237.27547	7.9247274	8.0946410	7.2556833
19.4000	19.4050	5	2	489.28589	237.00751	7.9027791	8.0723220	7.3205646
19.4050	19.4100	3	0	488.62362	236.65876	7.8806156	8.0497836	7.3915035
19.4100	19.4150	6	0	488.09003	235.98749	7.8576016	8.0263773	7.4866051
19.4150	19.4200	1	0	487.55644	235.31623	7.8345876	8.0029711	7.5817068
19.4200	19.4250	2	1	486.86927	234.79846	7.8116345	7.9796228	7.6066396
19.4250	19.4300	1	0	486.11661	234.34680	7.7887200	7.9563120	7.6014659
19.4300	19.4350	2	0	485.34532	233.99999	7.7669280	7.9341564	7.5987860
19.4350	19.4400	2	0	484.49897	234.07360	7.7496297	7.9166256	7.6061078
19.4400	19.4450	2	1	483.65262	234.14722	7.7323313	7.8990948	7.6134297
19.4450	19.4500	1	1	483.25444	233.56755	7.7158231	7.8823521	7.6044131
19.4500	19.4550	3	0	483.04824	232.70784	7.6996508	7.8659445	7.5883935
19.4550	19.4600	0	1	482.76042	232.06612	7.6834918	7.8495456	7.5723884
19.4600	19.4650	2	0	482.14601	232.29934	7.6674169	7.8332130	7.5564717
19.4650	19.4700	3	0	481.53159	232.53256	7.6513420	7.8168803	7.5405550
19.4700	19.4750	2	0	481.03702	232.13814	7.6353302	7.8006124	7.5247020
19.4750	19.4800	5	0	480.59402	231.47412	7.6193481	7.7843749	7.5088790
19.4800	19.4850	2	0	480.09104	230.89325	7.6033908	7.7681627	7.4930795
19.4850	19.4900	2	0	479.34707	230.64449	7.5875089	7.7520275	7.4773497
19.4900	19.4950	2	0	478.60281	230.39563	7.5716209	7.7358862	7.4616139
19.4950	19.5000	2	2	478.04363	230.10962	7.5531871	7.7171461	7.4433771
19.5000	19.5050	3	0	477.56381	229.80762	7.5336576	7.6972874	7.4240639
19.5050	19.5100	2	0	477.06723	229.41101	7.5140641	7.6773566	7.4046806
19.5100	19.5150	5	0	476.50416	228.63504	7.4942436	7.6571671	7.3850459
19.5150	19.5200	1	0	475.94130	227.85937	7.4744307	7.6369852	7.3654187
19.5200	19.5250	4	1	475.13773	227.61672	7.4546924	7.6168996	7.3458845
19.5250	19.5300	5	0	474.23039	227.60302	7.4349786	7.5968475	7.3263828
19.5300	19.5350	4	0	473.27663	227.41560	7.4152381	7.5767618	7.3068502
19.5350	19.5400	4	0	472.13729	226.53241	7.3953980	7.5565485	7.2872012
19.5400	19.5450	5	0	470.99795	225.64923	7.3755579	7.5363353	7.2675522
19.5450	19.5500	8	1	470.14925	225.08875	7.3555707	7.5159874	7.2477746
19.5500	19.5550	5	1	469.42595	224.66729	7.3355310	7.4955928	7.2279525
19.5550	19.5600	4	0	468.61392	224.22298	7.3154826	7.4751907	7.2081221
19.5600	19.5650	3	1	467.44476	223.68666	7.2953914	7.4547507	7.1882512
19.5650	19.5700	1	0	466.27560	223.15034	7.2753002	7.4343106	7.1683803
19.5700	19.5750	6	0	465.29954	222.48479	7.2553154	7.4139881	7.1486232
19.5750	19.5800	2	0	464.40626	221.76362	7.2353731	7.3937128	7.1289116
19.5800	19.5850	5	0	463.43419	221.16355	7.2154501	7.3734546	7.1092168
19.5850	19.5900	7	0	462.14762	221.05089	7.1956431	7.3533038	7.0896270
19.5900	19.5950	3	0	460.86105	220.93823	7.1758362	7.3331531	7.0700372
19.5950	19.6000	3	2	459.42326	220.18214	7.1562289	7.3132069	7.0506475
19.6000	19.6050	1	0	457.92059	219.14915	7.1367109	7.2933519	7.0313472
19.6050	19.6100	2	0	456.56496	218.30358	7.1177784	7.2740912	7.0126253
19.6100	19.6150	4	1	455.79780	218.20950	7.1011694	7.2571882	6.9961981
19.6150	19.6200	3	1	455.03035	218.11538	7.0845540	7.2402788	6.9797646
19.6200	19.6250	3	0	454.14888	217.55581	7.0696673	7.2251498	6.9650297
19.6250	19.6300	3	1	453.21825	216.79608	7.0555212	7.2107837	6.9510224
19.6300	19.6350	2	1	452.15840	216.05943	7.0413921	7.1964296	6.9370304
19.6350	19.6400	1	1	450.58051	215.41670	7.0273532	7.1821456	6.9231213
19.6400	19.6450	3	2	449.00322	214.77422	7.0133196	7.1678670	6.9092176
19.6450	19.6500	3	0	447.33414	214.30557	6.9953158	7.1495471	6.8914163
19.6500	19.6550	4	0	445.62493	213.91154	6.9755966	7.1294811	6.8719310
19.6550	19.6600	2	0	443.67848	213.31384	6.9551363	7.1086595	6.8517142
19.6600	19.6650	0	1	440.78090	211.89912	6.9317100	7.0848138	6.8285703
19.6650	19.6700	1	0	437.88331	210.48441	6.9082837	7.0609681	6.8054264
19.6700	19.6750	3	0	434.74743	209.69596	6.8854348	7.0377029	6.7828508
19.6750	19.6800	1	0	431.51072	209.17743	6.8628468	7.0147002	6.7605319
19.6800	19.6850	0	1	427.93666	208.53918	6.8418215	6.9932963	6.7397563
19.6850	19.6900	3	1	423.00217	207.41842	6.8270842	6.9783257	6.7251903
19.6900	19.6950	1	0	418.06767	206.29765	6.8123469	6.9633550	6.7106243
19.6950	19.7000	2	2	414.35091	205.49435	6.7968380	6.9475960	6.6952743
19.7000	19.7050	2	0	411.15728	204.82746	6.7809946	6.9314953	6.6795847
19.7050	19.7100	3	0	408.49577	204.06891	6.7649793	6.9152169	6.6637297
19.7100	19.7150	2	1	407.97922	202.94325	6.7483034	6.8982548	6.6472401
19.7150	19.7200	2	0	407.46267	201.81759	6.7316274	6.8812928	6.6307505
19.7200	19.7250	2	1	407.79722	200.04581	6.7150261	6.8644063	6.6143339
19.7250	19.7300	2	0	408.49833	197.99599	6.6984597	6.8475551	6.5979515
19.7300	19.7350	3	1	409.68091	195.96168	6.6819276	6.8307358	6.5816032
19.7350	19.7400	1	3	412.80066	193.98655	6.6655078	6.8140192	6.5653673
19.7400	19.7450	4	0	415.92161	192.01068	6.6490817	6.7972962	6.5491252
19.7450	19.7500	4	0	419.87661	189.14719	6.6329154	6.7808497	6.5331500
19.7500	19.7550	2	0	424.19120	185.90124	6.6168583	6.7645196	6.5172870
19.7550	19.7600	2	0	428.73913	183.03957	6.6008143	6.7481973	6.5014295
19.7600	19.7650	6	0	434.22029	181.73079	6.5848480	6.7319315	6.4856184
19.7650	19.7700	2	0	439.69937	180.42251	6.5688877	6.7156719	6.4698134
19.7700	19.7750	5	1	446.14462	179.88532	6.5526498	6.6991512	6.4537521
19.7750	19.7800	6	0	453.00873	179.68026	6.5362861	6.6825116	6.4375742
19.7800	19.7850	7	0	459.22191	179.67602	6.5199368	6.6658932	6.4214186
19.7850	19.7900	9	0	462.81644	180.47888	6.5036515	6.6493656	6.4053588
19.7900	19.7950	6	0	466.41098	181.28175	6.4873662	6.6328380	6.3892989
19.7950	19.8000	9	0	469.17218	182.40836	6.4698371	6.6150137	6.3719834
19.8000	19.8050	2	0	471.57270	183.67389	6.4517816	6.5966403	6.3541362
19.8050	19.8100	9	1	473.74063	184.85631	6.4336947	6.5782442	6.3362615
19.8100	19.8150	6	0	474.97023	185.70362	6.4154747	6.5597502	6.3182691
19.8150	19.8200	9	1	476.19982	186.55092	6.3972547	6.5412561	6.3002767
19.8200	19.8250	15	1	476.28057	187.74731	6.3791391	6.5228245	6.2823842
19.8250	19.8300	11	0	475.86645	189.09426	6.3610655	6.5044168	6.2645316
19.8300	19.8350	5	0	475.41633	190.39823	6.3430058	6.4860273	6.2466928
19.8350	19.8400	8	0	474.82193	191.52639	6.3250368	6.4677467	6.2289434
19.8400	19.8450	2	1	474.22754	192.65455	6.3070678	6.4494661	6.2111939
19.8450	19.8500	6	1	473.62297	194.02729	6.2891863	6.4312698	6.1935444
19.8500	19.8550	8	0	473.01411	195.50537	6.2713454	6.4131129	6.1759410
19.8550	19.8600	4	1	472.41954	197.12693	6.2537160	6.3951750	6.1585440
19.8600	19.8650	2	0	471.88163	199.32909	6.2369116	6.3780922	6.1419527
19.8650	19.8700	4	1	471.34352	201.53209	6.2201007	6.3610028	6.1253550
19.8700	19.8750	4	0	470.79733	203.89761	6.2032673	6.3438833	6.1087407
19.8750	19.8800	3	0	470.24758	206.33355	6.1864215	6.3267480	6.0921166
19.8800	19.8850	0	2	469.69767	208.97572	6.1695912	6.3096276	6.0755058
19.8850	19.8900	3	0	469.14799	212.44651	6.1528501	6.2925939	6.0589742
19.8900	19.8950	2	1	468.59853	215.91598	6.1361154	6.2755666	6.0424489
19.8950	19.9000	2	0	468.04966	218.28096	6.1195951	6.2587817	6.0261301
19.9000	19.9050	3	0	467.50084	220.16971	6.1031612	6.2420950	6.0098944
19.9050	19.9100	4	1	466.95746	221.82665	6.0868543	6.2255352	5.9937858
19.9100	19.9150	4	0	466.43620	222.54897	6.0710656	6.2094923	5.9781957
19.9150	19.9200	5	0	465.91494	223.27128	6.0552769	6.1934494	5.9626057
19.9200	19.9250	1	0	465.42652	223.34883	6.0399933	6.1779009	5.9474925
19.9250	19.9300	0	0	464.95253	223.14810	6.0249360	6.1625741	5.9325933
19.9300	19.9350	1	0	464.48061	222.92317	6.0099179	6.1472904	5.9177378
19.9350	19.9400	2	0	464.01683	222.60033	5.9950525	6.1321751	5.9030529
19.9400	19.9450	4	0	463.55305	222.27749	5.9801871	6.1170597	5.8883680
19.9450	19.9500	0	0	463.09124	221.96864	5.9654154	6.1020366	5.8737851
19.9500	19.9550	4	0	462.63020	221.66576	5.9506816	6.0870510	5.8592436
19.9550	19.9600	6	0	462.16915	221.36024	5.9359591	6.0720776	5.8447120
19.9600	19.9650	2	0	461.70894	221.04464	5.9213101	6.0571826	5.8302476
19.9650	19.9700	3	0	461.24872	220.72903	5.9066612	6.0422875	5.8157831
19.9700	19.9750	3	0	460.76862	220.41379	5.8918208	6.0271795	5.8011312
19.9750	19.9800	0	1	460.27999	220.09876	5.8769000	6.0119817	5.7864005
19.9800	19.9850	2	0	459.77201	219.77199	5.8617567	5.9965571	5.7714477
19.9850	19.9900	0	0	459.18513	219.39728	5.8456914	5.9801928	5.7555745
19.9900	19.9950	3	0	458.59802	219.02244	5.8296200	5.9638222	5.7396953
19.9950	20.0000	2	0	458.01217	218.65553	5.8136474	5.9475439	5.7239346
20.0000	20.0050	2	0	457.42676	218.29199	5.7977147	5.9313027	5.7082226
20.0050	20.0100	1	0	456.84287	217.92792	5.7817905	5.9150752	5.6925153
20.0100	20.0150	0	0	456.26602	217.56225	5.7659251	5.8989277	5.6768516
20.0150	20.0200	2	0	455.68940	217.19673	5.7500658	5.8827864	5.6611938
20.0200	20.0250	2	0	455.14912	216.84730	5.7347011	5.8671400	5.6460182
20.0250	20.0300	1	1	454.62435	216.50470	5.7195442	5.8517017	5.6310451
20.0300	20.0350	2	0	454.09974	216.16441	5.7044054	5.8362847	5.6160898
20.0350	20.0400	1	0	453.57596	215.83356	5.6893452	5.8209591	5.6012118
20.0400	20.0450	4	0	453.05218	215.50272	5.6742851	5.8056335	5.5863339
20.0450	20.0500	3	0	452.52472	215.16334	5.6592373	5.7903145	5.5714668
20.0500	20.0550	0	0	451.99597	214.82046	5.6442031	5.7750066	5.5566125
20.0550	20.0600	2	0	451.42207	214.45664	5.6286266	5.7591420	5.5412217
20.0600	20.0650	0	0	450.66515	214.00789	5.6108477	5.7410167	5.5236519
20.0650	20.0700	3	0	449.90822	213.55913	5.5930687	5.7228914	5.5060820
20.0700	20.0750	2	0	449.14974	213.11197	5.5753487	5.7048285	5.4885818
20.0750	20.0800	2	0	448.39045	212.66543	5.5576512	5.6867894	5.4711088
20.0800	20.0850	2	0	447.63113	212.21820	5.5399725	5.6687697	5.4536541
20.0850	20.0900	2	2	446.87309	211.76908	5.5224044	5.6508628	5.4363070
20.0900	20.0950	3	1	446.11506	211.31995	5.5048363	5.6329559	5.4189598
20.0950	20.1000	3	0	445.78433	211.06860	5.4924680	5.6203664	5.4067291
20.1000	20.1050	6	0	445.63875	210.90296	5.4823542	5.6100823	5.3967168
20.1050	20.1100	2	0	445.50090	210.73970	5.4723142	5.5998733	5.3867750
20.1100	20.1150	3	0	445.39414	210.58581	5.4625575	5.5899527	5.3771037
20.1150	20.1200	2	0	445.28734	210.43186	5.4527971	5.5800283	5.3674287
20.1200	20.1250	2	0	445.04631	210.21502	5.4414345	5.5684650	5.3561834
20.1250	20.1300	3	1	444.74720	209.97096	5.4293771	5.5561909	5.3442572
20.1300	20.1350	1	0	444.36339	209.68711	5.4163020	5.5428770	5.3313301
20.1350	20.1400	4	0	443.63700	209.24248	5.3991233	5.5253704	5.3143673
20.1400	20.1450	1	1	442.91088	208.79802	5.3819511	5.5078704	5.2974111
20.1450	20.1500	2	0	442.18551	208.35463	5.3648739	5.4904585	5.2805484
20.1500	20.1550	5	0	441.46019	207.91153	5.3478311	5.4730779	5.2637199
20.1550	20.1600	3	0	440.80159	207.50003	5.3316126	5.4565417	5.2477025
20.1600	20.1650	2	2	440.41312	207.21647	5.3187337	5.4434265	5.2349718
20.1650	20.1700	2	0	440.02465	206.93291	5.3058547	5.4303114	5.2222411
20.1700	20.1750	3	0	439.73927	206.69820	5.2942608	5.4185166	5.2107782
20.1750	20.1800	1	0	439.49867	206.48476	5.2832294	5.4072997	5.1998703
20.1800	20.1850	0	0	439.25814	206.27150	5.2722200	5.3960953	5.1889814
20.1850	20.1900	3	0	439.01782	206.05886	5.2612959	5.3849371	5.1781656
20.1900	20.1950	7	0	438.77749	205.84622	5.2503717	5.3737789	5.1673498
20.1950	20.2000	0	1	438.46552	205.60482	5.2387287	5.3619171	5.1558396
20.2000	20.2050	4	0	438.12252	205.35095	5.2267730	5.3497493	5.1440274
20.2050	20.2100	3	1	437.76093	205.08977	5.2146403	5.3373991	5.1320390
20.2100	20.2150	0	1	437.32464	204.79946	5.2018135	5.3243338	5.1193590
20.2150	20.2200	3	0	436.88834	204.50916	5.1889866	5.3112685	5.1066791
20.2200	20.2250	1	0	436.45235	204.21925	5.1762117	5.2982561	5.0940631
20.2250	20.2300	1	0	436.01655	203.92957	5.1634614	5.2852689	5.0814769
20.2300	20.2350	3	0	435.58107	203.64020	5.1507332	5.2723040	5.0689091
20.2350	20.2400	1	0	435.14619	203.35160	5.1380749	5.2594097	5.0563966
20.2400	20.2450	2	0	434.71114	203.06290	5.1254117	5.2465104	5.0438793
20.2450	20.2500	2	0	434.27673	202.77493	5.1128159	5.2336910	5.0314249
20.2500	20.2550	1	0	433.84253	202.48724	5.1002472	5.2209041	5.0189956
20.2550	20.2600	1	0	433.40667	202.19888	5.0876691	5.2081087	5.0065613
20.2600	20.2650	0	0	432.96479	201.90828	5.0750716	5.1952986	4.9941260
20.2650	20.2700	4	1	432.52308	201.61779	5.0624790	5.1824934	4.9816954
20.2700	20.2750	5	1	432.10721	201.33977	5.0502412	5.1700348	4.9696024
20.2750	20.2800	5	0	431.70239	201.06704	5.0381526	5.1577218	4.9576512
20.2800	20.2850	5	1	431.33168	200.81028	5.0264749	5.1458282	4.9461048
20.2850	20.2900	6	0	431.09949	200.61840	5.0164686	5.1356407	4.9362045
20.2900	20.2950	1	0	430.86730	200.42653	5.0064623	5.1254532	4.9263042
20.2950	20.3000	3	0	430.63525	200.23501	4.9964909	5.1153026	4.9164438
20.3000	20.3050	3	1	430.40337	200.04376	4.9865401	5.1051735	4.9066061
20.3050	20.3100	3	0	430.17148	199.85223	4.9765764	5.0950284	4.8967518
20.3100	20.3150	7	0	429.93938	199.65955	4.9665569	5.0848148	4.8868261
20.3150	20.3200	2	1	429.70729	199.46686	4.9565373	5.0746012	4.8769004
20.3200	20.3250	2	1	429.33116	199.20325	4.9445692	5.0624087	4.8650714
20.3250	20.3300	0	0	428.89258	198.90889	4.9317554	5.0493573	4.8524161
20.3300	20.3350	0	1	428.45456	198.61488	4.9189614	5.0363245	4.8397803
20.3350	20.3400	3	0	428.01959	198.32288	4.9062728	5.0233923	4.8272474
20.3400	20.3450	2	1	427.58462	198.03087	4.8935842	5.0104601	4.8147146
20.3450	20.3500	3	0	427.14986	197.73937	4.8809532	4.9975832	4.8022291
20.3500	20.3550	6	0	426.71527	197.44812	4.8683492	4.9847323	4.7897663
20.3550	20.3600	0	0	426.34974	197.18898	4.8565465	4.9727111	4.7780953
20.3600	20.3650	3	0	426.26442	197.05990	4.8479829	4.9640438	4.7696252
20.3650	20.3700	1	0	426.17907	196.93077	4.8394160	4.9553731	4.7611518
20.3700	20.3750	2	1	426.14762	196.82668	4.8314973	4.9473324	4.7533049
20.3750	20.3800	2	1	426.13956	196.73345	4.8238586	4.9395637	4.7457286
20.3800	20.3850	2	1	426.10709	196.62900	4.8159504	4.9315217	4.7378872
20.3850	20.3900	3	0	425.97537	196.47906	4.8069572	4.9223801	4.7289782
20.3900	20.3950	3	0	425.84370	196.32918	4.7979674	4.9132419	4.7200726
20.3950	20.4000	1	1	425.66778	196.15504	4.7884120	4.9035212	4.7106391
20.4000	20.4050	4	0	425.47258	195.97029	4.7786073	4.8935438	4.7009727
20.4050	20.4100	2	1	425.27743	195.78452	4.7687858	4.8835504	4.6912840
20.4100	20.4150	2	0	425.08262	195.59461	4.7588998	4.8734962	4.6815088
20.4150	20.4200	4	1	424.88781	195.40471	4.7490137	4.8634420	4.6717336
20.4200	20.4250	1	0	424.69308	195.21523	4.7391664	4.8534301	4.6620008
20.4250	20.4300	6	0	424.49848	195.02604	4.7293413	4.8434419	4.6522918
20.4300	20.4350	3	0	424.30394	194.83696	4.7195291	4.8334647	4.6425948
20.4350	20.4400	6	1	424.10955	194.64826	4.7097653	4.8235278	4.6329432
20.4400	20.4450	3	0	423.91516	194.45956	4.7000016	4.8135908	4.6232916
20.4450	20.4500	3	1	423.72103	194.27135	4.6902806	4.8037068	4.6136809
20.4500	20.4550	2	0	423.52699	194.08332	4.6805765	4.7938442	4.6040864
20.4550	20.4600	3	0	423.33307	193.89539	4.6708827	4.7839895	4.5945025
20.4600	20.4650	2	1	423.14001	193.70824	4.6612493	4.7741868	4.5849808
20.4650	20.4700	0	0	422.94695	193.52110	4.6516159	4.7643841	4.5754590
20.4700	20.4750	2	1	422.75420	193.33445	4.6420297	4.7546247	4.5659781
20.4750	20.4800	2	0	422.56161	193.14804	4.6324657	4.7448856	4.5565164
20.4800	20.4850	1	1	422.36914	192.96182	4.6229139	4.7351612	4.5470696
20.4850	20.4900	2	0	422.17688	192.77602	4.6133971	4.7254810	4.5376689
20.4900	20.4950	2	0	421.98453	192.59014	4.6038767	4.7157971	4.5282646
20.4950	20.5000	1	1	421.79249	192.40887	4.5945020	4.7062626	4.5190068
20.5000	20.5050	1	0	421.60055	192.22957	4.5851891	4.6967915	4.5098111
20.5050	20.5100	2	0	421.41108	192.05261	4.5759380	4.6873877	4.5006751
20.5100	20.5150	2	0	421.23201	191.88547	4.5669537	4.6782730	4.4917971
20.5150	20.5200	0	0	421.05301	191.71838	4.5579729	4.6691618	4.4829224
20.5200	20.5250	3	0	420.87080	191.55016	4.5489942	4.6600326	4.4740500
20.5250	20.5300	1	0	420.68713	191.38139	4.5400129	4.6508920	4.4651752
20.5300	20.5350	1	0	420.50118	191.21161	4.5310172	4.6417368	4.4562854
20.5350	20.5400	2	0	420.30601	191.03784	4.5219658	4.6325256	4.4473376
20.5400	20.5450	2	0	420.11085	190.86406	4.5129143	4.6233144	4.4383899
20.5450	20.5500	2	0	419.91592	190.69056	4.5038962	4.6141347	4.4294753
20.5500	20.5550	1	1	419.72119	190.51727	4.4948974	4.6049737	4.4205800
20.5550	20.5600	1	0	419.52654	190.34405	4.4859092	4.5958245	4.4116974
20.5600	20.5650	5	0	419.33213	190.17109	4.4769611	4.5867200	4.4028631
20.5650	20.5700	2	0	419.13771	189.99813	4.4680130	4.5776156	4.3940289
20.5700	20.5750	3	0	418.94344	189.82565	4.4591085	4.5685505	4.3852431
20.5750	20.5800	0	1	418.74920	189.65335	4.4502215	4.5595009	4.3764768
20.5800	20.5850	5	0	418.55495	189.48108	4.4413406	4.5504583	4.3677132
20.5850	20.5900	1	1	418.36103	189.30924	4.4325022	4.5414619	4.3589774
20.5900	20.5950	4	2	418.16711	189.13739	4.4236637	4.5324654	4.3502415
20.5950	20.6000	2	1	417.86795	188.91823	4.4137512	4.5223845	4.3404456
20.6000	20.6050	1	0	417.52302	188.67850	4.4033728	4.5118332	4.3301897
20.6050	20.6100	2	1	417.17429	188.43718	4.3929673	4.5012497	4.3199110
20.6100	20.6150	1	1	416.80952	188.18899	4.3824351	4.4905189	4.3095229
20.6150	20.6200	0	0	416.44460	187.94071	4.3718989	4.4797840	4.2991309
20.6200	20.6250	3	0	416.08023	187.69303	4.3614122	4.4691061	4.2887827
20.6250	20.6300	5	1	415.71603	187.44558	4.3509453	4.4584512	4.2784519
20.6300	20.6350	0	1	415.35181	187.19820	4.3404892	4.4478044	4.2681321
20.6350	20.6400	0	0	414.98806	186.95152	4.3300929	4.4372076	4.2578733
20.6400	20.6450	1	1	414.62446	186.70493	4.3197006	4.4266148	4.2476183
20.6450	20.6500	0	0	414.26125	186.45891	4.3093517	4.4160682	4.2374080
20.6500	20.6550	0	1	413.89808	186.21304	4.2990177	4.4055378	4.2272134
20.6550	20.6600	0	0	413.58520	185.98989	4.2892181	4.3955527	4.2175405
20.6600	20.6650	1	1	413.47774	185.85955	4.2816038	4.3877981	4.2100016
20.6650	20.6700	3	0	413.37028	185.72921	4.2739894	4.3800435	4.2024627
20.6700	20.6750	2	0	413.27994	185.60670	4.2665676	4.3724947	4.1951242
20.6750	20.6800	3	0	413.19712	185.48766	4.2592338	4.3650397	4.1878770
20.6800	20.6850	4	1	413.10724	185.36552	4.2518332	4.3575184	4.1805658
20.6850	20.6900	4	1	412.98844	185.23059	4.2441569	4.3497227	4.1729902
20.6900	20.6950	3	0	412.86965	185.09566	4.2364806	4.3419270	4.1654145
20.6950	20.7000	2	0	412.61308	184.89487	4.2273324	4.3326158	4.1563892
20.7000	20.7050	4	1	412.29652	184.66540	4.2175423	4.3226436	4.1467316
20.7050	20.7100	4	0	411.97985	184.43442	4.2077134	4.3126463	4.1370372
20.7100	20.7150	2	1	411.66336	184.19772	4.1977448	4.3025656	4.1272113
20.7150	20.7200	2	1	411.34686	183.96102	4.1877762	4.2924850	4.1173854
20.7200	20.7250	4	0	411.02961	183.72089	4.1776150	4.2821686	4.1073638
20.7250	20.7300	3	0	410.71207	183.47930	4.1673714	4.2717511	4.0972585
20.7300	20.7350	4	1	410.39491	183.23803	4.1571507	4.2613519	4.0871761
20.7350	20.7400	0	0	410.07877	182.99767	4.1470075	4.2510115	4.0771715
20.7400	20.7450	2	1	409.76252	182.75722	4.1368605	4.2406671	4.0671630
20.7450	20.7500	1	0	409.44678	182.51754	4.1267557	4.2303714	4.0572036
20.7500	20.7550	0	0	409.13121	182.27816	4.1166676	4.2200953	4.0472641
20.7550	20.7600	4	0	408.81564	182.03885	4.1065915	4.2098285	4.0373311
20.7600	20.7650	4	0	408.50056	181.80023	4.0965801	4.1996161	4.0274403
20.7650	20.7700	5	0	408.18560	181.56170	4.0865725	4.1894076	4.0175533
20.7700	20.7750	0	2	407.86880	181.32375	4.0766083	4.1792479	4.0077142
20.7750	20.7800	1	1	407.55107	181.08597	4.0666592	4.1691056	3.9978924
20.7800	20.7850	2	0	407.11131	180.83976	4.0565314	4.1587801	3.9879012
20.7850	20.7900	2	0	406.17337	180.55926	4.0456777	4.1477100	3.9772223
20.7900	20.7950	2	0	405.23543	180.27876	4.0348239	4.1366399	3.9665434
20.7950	20.8000	3	1	403.33118	180.00187	4.0240891	4.1256867	3.9559615
20.8000	20.8050	1	0	401.00640	179.72671	4.0134122	4.1147905	3.9454278
20.8050	20.8100	2	0	398.30629	179.45313	4.0027796	4.1039403	3.9349390
20.8100	20.8150	1	1	394.06531	179.18588	3.9923250	4.0932746	3.9246307
20.8150	20.8200	6	0	389.82432	178.91863	3.9818705	4.0826089	3.9143223
20.8200	20.8250	1	0	384.89802	178.65424	3.9715176	4.0720553	3.9041063
20.8250	20.8300	2	1	379.67231	178.39107	3.9612072	4.0615488	3.8939288
20.8300	20.8350	3	0	374.55360	178.14602	3.9513063	4.0514585	3.8841552
20.8350	20.8400	4	0	369.88297	177.97563	3.9431009	4.0430917	3.8760542
20.8400	20.8450	3	2	365.21235	177.80525	3.9348955	4.0347248	3.8679533
20.8450	20.8500	3	0	361.33570	177.63522	3.9267223	4.0263982	3.8598815
20.8500	20.8550	8	0	357.80669	177.46536	3.9185645	4.0180907	3.8518238
20.8550	20.8600	6	0	354.93832	177.29220	3.9103440	4.0097147	3.8437034
20.8600	20.8650	3	0	354.77074	177.10524	3.9018539	4.0010459	3.8353136
20.8650	20.8700	2	0	354.60310	176.91821	3.8933605	3.9923737	3.8269207
20.8700	20.8750	6	2	354.79376	176.69025	3.8839902	3.9828065	3.8176706
20.8750	20.8800	4	0	355.14078	176.44439	3.8742357	3.9728471	3.8080450
20.8800	20.8850	5	0	355.82173	176.19855	3.8644934	3.9628971	3.7984283
20.8850	20.8900	4	0	357.87266	175.95317	3.8548164	3.9530013	3.7888633
20.8900	20.8950	8	0	359.92280	175.70788	3.8451431	3.9431094	3.7793020
20.8950	20.9000	3	0	361.39009	175.45880	3.8354085	3.9331641	3.7696888
20.9000	20.9050	3	0	362.60327	175.20797	3.8256433	3.9231917	3.7600491
20.9050	20.9100	10	1	363.84750	174.95843	3.8159165	3.9132605	3.7504464
20.9100	20.9150	13	0	365.21836	174.71426	3.8063501	3.9035014	3.7409987
20.9150	20.9200	6	0	366.58922	174.47009	3.7967838	3.8937423	3.7315510
20.9200	20.9250	10	0	367.92325	174.24802	3.7877278	3.8845028	3.7226001
20.9250	20.9300	6	0	369.24045	174.03572	3.7788997	3.8754955	3.7138712
20.9300	20.9350	2	0	370.34524	173.82357	3.7700830	3.8665003	3.7051523
20.9350	20.9400	6	1	370.57727	173.61193	3.7613097	3.8575515	3.6964716
20.9400	20.9450	4	0	370.80931	173.40029	3.7525364	3.8486028	3.6877910
20.9450	20.9500	5	0	371.21542	173.18936	3.7438138	3.8397165	3.6791633
20.9500	20.9550	2	0	371.69761	172.97870	3.7351120	3.8308561	3.6705573
20.9550	20.9600	2	0	372.16608	172.76558	3.7260533	3.8216283	3.6615971
20.9600	20.9650	2	1	372.57727	172.54280	3.7155471	3.8109105	3.6512005
20.9650	20.9700	4	1	372.98846	172.32002	3.7050409	3.8001927	3.6408038
20.9700	20.9750	1	0	372.89497	172.06288	3.6920548	3.7869577	3.6279734
20.9750	20.9800	2	1	372.58062	171.79075	3.6779855	3.7726231	3.6140799
20.9800	20.9850	0	0	372.29663	171.49374	3.6631789	3.7575333	3.5994578
20.9850	20.9900	0	1	372.13680	171.09416	3.6453236	3.7393204	3.5818228
20.9900	20.9950	1	0	371.97690	170.69443	3.6274615	3.7211005	3.5641812
20.9950	21.0000	1	0	371.54727	170.29206	3.6087063	3.7019738	3.5456574
21.0000	21.0050	1	0	370.99948	169.88830	3.5895502	3.6824402	3.5267379
21.0050	21.0100	1	0	370.51396	169.51147	3.5722051	3.6647508	3.5096104
21.0100	21.0150	3	1	370.28330	169.24454	3.5622662	3.6546042	3.4998128
21.0150	21.0200	1	0	370.05273	168.97771	3.5523311	3.6444614	3.4900190
21.0200	21.0250	3	0	369.85623	168.75142	3.5474642	3.6394752	3.4852436
21.0250	21.0300	1	0	369.67456	168.54278	3.5448135	3.6367437	3.4826627
21.0300	21.0350	2	0	369.53482	168.34168	3.5420437	3.6338935	3.4799606
21.0350	21.0400	1	0	369.56722	168.17123	3.5387785	3.6305491	3.4767551
21.0400	21.0450	1	0	369.59961	168.00084	3.5355146	3.6272061	3.4735508
21.0450	21.0500	1	0	369.51836	167.84066	3.5313341	3.6229324	3.4694345
21.0500	21.0550	2	0	369.38743	167.68504	3.5267550	3.6182541	3.4649215
21.0550	21.0600	0	0	369.28507	167.52644	3.5217423	3.6131401	3.4599795
21.0600	21.0650	2	0	369.30025	167.35550	3.5149427	3.6062308	3.4532699
21.0650	21.0700	1	0	369.31543	167.18457	3.5081431	3.5993214	3.4465602
21.0700	21.0750	5	0	369.34848	167.00476	3.5000619	3.5910905	3.4385786
21.0750	21.0800	1	0	369.38934	166.82104	3.4914193	3.5822807	3.4300399
21.0800	21.0850	3	1	369.34898	166.62326	3.4828499	3.5735431	3.4215779
21.0850	21.0900	1	0	368.97449	166.36805	3.4745983	3.5651202	3.4134481
21.0900	21.0950	1	3	368.60000	166.11284	3.4663467	3.5566973	3.4053184
21.0950	21.1000	2	1	368.21550	165.83696	3.4590131	3.5491969	3.3980986
21.1000	21.1050	3	0	367.82667	165.55208	3.4520831	3.5421023	3.3912790
21.1050	21.1100	0	0	367.41558	165.25399	3.4440996	3.5339335	3.3834169
21.1100	21.1150	2	0	366.91234	164.90113	3.4317729	3.5213364	3.3712576
21.1150	21.1200	0	0	366.40891	164.54815	3.4194416	3.5087346	3.3590937
21.1200	21.1250	2	1	365.66858	164.12627	3.4034086	3.4923571	3.3432696
21.1250	21.1300	2	1	364.82411	163.67399	3.3857459	3.4743174	3.3258340
21.1300	21.1350	4	0	363.99670	163.22227	3.3681333	3.4563279	3.3084473
21.1350	21.1400	5	0	363.23798	162.77197	3.3506925	3.4385097	3.2912279
21.1400	21.1450	3	0	362.47954	162.32183	3.3332583	3.4206982	3.2740150
21.1450	21.1500	2	0	361.89153	161.87274	3.3159166	3.4029752	3.2568917
21.1500	21.1550	3	1	361.37800	161.42394	3.2986088	3.3852842	3.2398012
21.1550	21.1600	5	0	360.98517	161.05109	3.2839840	3.3703369	3.2253573
21.1600	21.1650	3	1	361.08878	160.99039	3.2803836	3.3666627	3.2217877
21.1650	21.1700	2	1	361.19235	160.92972	3.2767846	3.3629899	3.2182195
21.1700	21.1750	7	0	361.36169	160.92943	3.2783406	3.3645793	3.2197496
21.1750	21.1800	7	0	361.55975	160.95562	3.2821548	3.3684741	3.2235132
21.1800	21.1850	4	0	361.76991	160.97221	3.2849304	3.3713083	3.2262517
21.1850	21.1900	9	0	362.03001	160.94918	3.2834204	3.3697666	3.2247605
21.1900	21.1950	8	0	362.29012	160.92616	3.2819104	3.3682249	3.2232693
21.1950	21.2000	7	0	361.68045	160.62144	3.2711936	3.3572778	3.2126997
21.2000	21.2050	8	0	360.68993	160.19336	3.2564446	3.3422114	3.1981543
21.2050	21.2100	7	1	359.78114	159.76239	3.2414134	3.3268557	3.1833287
21.2100	21.2150	12	1	359.21110	159.32032	3.2252484	3.3103372	3.1673768
21.2150	21.2200	8	0	358.64106	158.87825	3.2090834	3.2938186	3.1514250
21.2200	21.2250	6	0	358.05326	158.43951	3.1923657	3.2767351	3.1349283
21.2250	21.2300	4	1	357.45776	158.00229	3.1754081	3.2594063	3.1181950
21.2300	21.2350	5	0	356.85426	157.59637	3.1592443	3.2428918	3.1022422
21.2350	21.2400	3	1	356.21690	157.31875	3.1463268	3.2297072	3.0894812
21.2400	21.2450	3	1	355.57929	157.04103	3.1334044	3.2165176	3.0767152
21.2450	21.2500	5	0	355.17526	156.76914	3.1212335	3.2040950	3.0646986
21.2500	21.2550	4	0	354.87348	156.49968	3.1093857	3.1920022	3.0530040
21.2550	21.2600	2	0	354.58140	156.24035	3.0981814	3.1805659	3.0419461
21.2600	21.2650	1	0	354.32885	156.02238	3.0896110	3.1718168	3.0334939
21.2650	21.2700	1	0	354.07639	155.80449	3.0810438	3.1630711	3.0250448
21.2700	21.2750	3	1	353.94070	155.68701	3.0769393	3.1588810	3.0209955
21.2750	21.2800	2	0	353.85619	155.61356	3.0747915	3.1566883	3.0188752
21.2800	21.2850	2	1	353.83045	155.53822	3.0723871	3.1542366	3.0165025
21.2850	21.2900	2	0	354.04718	155.45495	3.0689191	3.1507118	3.0130833
21.2900	21.2950	1	1	354.26383	155.37172	3.0654524	3.1471883	3.0096654
21.2950	21.3000	2	1	354.06453	155.23566	3.0600413	3.1416768	3.0043282
21.3000	21.3050	1	1	353.68284	155.07651	3.0537800	3.1352959	2.9981517
21.3050	21.3100	2	0	353.27195	154.88412	3.0463043	3.1276768	2.9907763
21.3100	21.3150	1	0	352.74007	154.55414	3.0338003	3.1149305	2.9784365
21.3150	21.3200	2	1	352.20820	154.22416	3.0212963	3.1021841	2.9660966
21.3200	21.3250	1	1	351.58712	153.88299	3.0069399	3.0875562	2.9519281
21.3250	21.3300	2	0	350.92679	153.53687	2.9917682	3.0721001	2.9369547
21.3300	21.3350	3	0	350.31088	153.19020	2.9765823	3.0566257	2.9219676
21.3350	21.3400	3	0	349.87977	152.84199	2.9613681	3.0411065	2.9069535
21.3400	21.3450	1	0	349.44867	152.49379	2.9461539	3.0255872	2.8919394
21.3450	21.3500	2	0	348.91867	152.14589	2.9310274	3.0101512	2.8770158
21.3500	21.3550	1	1	348.34525	151.79819	2.9159421	2.9947545	2.8621347
21.3550	21.3600	2	0	347.78833	151.45177	2.9010068	2.9795100	2.8474038
21.3600	21.3650	0	1	347.29866	151.11009	2.8866673	2.9648701	2.8332702
21.3650	21.3700	3	1	346.80881	150.76827	2.8723224	2.9502246	2.8191313
21.3700	21.3750	1	1	346.04229	150.38956	2.8576552	2.9352456	2.8046866
21.3750	21.3800	1	0	345.15384	149.99443	2.8428384	2.9201118	2.7900998
21.3800	21.3850	1	1	344.37046	149.60065	2.8282289	2.9051888	2.7757152
21.3850	21.3900	5	2	344.01990	149.21162	2.8144481	2.8911077	2.7621388
21.3900	21.3950	3	0	343.66947	148.82275	2.8006725	2.8770319	2.7485676
21.3950	21.4000	1	0	342.82589	148.43744	2.7876677	2.8637399	2.7357660
21.4000	21.4050	4	0	341.76532	148.05356	2.7749965	2.8507872	2.7232976
21.4050	21.4100	2	0	340.87440	147.71242	2.7647093	2.8402722	2.7131794
21.4100	21.4150	3	0	340.68391	147.54752	2.7642687	2.8398260	2.7127678
21.4150	21.4200	0	1	340.49350	147.38269	2.7638283	2.8393799	2.7123563
21.4200	21.4250	6	0	340.67780	147.41582	2.7726409	2.8483662	2.7210848
21.4250	21.4300	3	1	341.02672	147.53594	2.7855161	2.8614937	2.7338261
21.4300	21.4350	5	1	341.27195	147.64973	2.7976035	2.8738173	2.7457867
21.4350	21.4400	3	0	341.08812	147.73737	2.8064345	2.8828188	2.7545206
21.4400	21.4450	6	0	340.90428	147.82501	2.8152655	2.8918203	2.7632544
21.4450	21.4500	4	0	340.84846	147.76729	2.8184581	2.8950611	2.7664265
21.4500	21.4550	6	0	340.84883	147.64575	2.8191762	2.8957739	2.7671578
21.4550	21.4600	9	1	340.69058	147.47878	2.8181367	2.8946913	2.7661576
21.4600	21.4650	5	0	339.87615	147.12410	2.8098252	2.8861807	2.7579933
21.4650	21.4700	10	0	339.06172	146.76941	2.8015137	2.8776700	2.7498290
21.4700	21.4750	4	1	338.16313	146.38723	2.7896264	2.8655161	2.7381228
21.4750	21.4800	2	0	337.22763	145.99301	2.7761668	2.8517604	2.7248591
21.4800	21.4850	3	0	336.38695	145.60556	2.7635422	2.8388542	2.7124230
21.4850	21.4900	3	1	335.93713	145.24551	2.7543515	2.8294423	2.7033904
21.4900	21.4950	1	1	335.48713	144.88533	2.7451573	2.8200267	2.6943544
21.4950	21.5000	5	1	334.77020	144.55605	2.7383775	2.8141199	2.6887184
21.5000	21.5050	1	1	333.93549	144.24017	2.7326559	2.8097529	2.6845746
21.5050	21.5100	1	2	333.14537	143.92607	2.7262666	2.8051435	2.6801935
21.5100	21.5150	4	0	332.53839	143.61869	2.7170994	2.7995209	2.6748206
21.5150	21.5200	0	0	331.93165	143.31142	2.7079356	2.7939005	2.6694498
21.5200	21.5250	2	0	331.10916	142.99546	2.6934044	2.7865565	2.6623885
21.5250	21.5300	3	1	330.19136	142.67554	2.6765041	2.7784507	2.6545802
21.5300	21.5350	5	0	329.26254	142.35313	2.6565753	2.7699865	2.6464264
21.5350	21.5400	3	1	328.28616	142.01969	2.6240452	2.7600187	2.6368234
21.5400	21.5450	1	1	327.31014	141.68637	2.5915276	2.7500547	2.6272241
21.5450	21.5500	3	1	326.70146	141.34204	2.5608572	2.7386272	2.6162005
21.5500	21.5550	4	0	326.25489	140.99306	2.5310172	2.7265614	2.6045556
21.5550	21.5600	4	0	325.72559	140.64767	2.4997949	2.7149441	2.5933491
21.5600	21.5650	5	1	324.85228	140.31708	2.4628157	2.7051867	2.5839601
21.5650	21.5700	13	1	323.97896	139.98649	2.4258366	2.6954292	2.5745711
21.5700	21.5750	12	0	322.89170	139.62800	2.3992789	2.6872511	2.5667470
21.5750	21.5800	12	1	321.71009	139.25715	2.3773042	2.6797669	2.5596103
21.5800	21.5850	26	0	320.61952	138.88031	2.3550313	2.6716748	2.5518806
21.5850	21.5900	34	0	319.90861	138.47933	2.3315660	2.6610784	2.5417069
21.5900	21.5950	38	1	319.19770	138.07835	2.3081007	2.6504820	2.5315332
21.5950	21.6000	41	0	318.03634	137.65936	2.2995652	2.6375372	2.5190774
21.6000	21.6050	59	4	316.67652	137.23249	2.2976154	2.6235587	2.5056172
21.6050	21.6100	38	1	315.38775	136.79163	2.2936580	2.6089820	2.4915793
21.6100	21.6150	37	1	314.39158	136.29205	2.2813686	2.5919011	2.4751235
21.6150	21.6200	20	1	313.39503	135.79228	2.2690745	2.5748136	2.4586614
21.6200	21.6250	16	0	312.10827	135.27017	2.2554670	2.5553938	2.4399334
21.6250	21.6300	23	2	310.69297	134.73794	2.2412732	2.5349357	2.4201970
21.6300	21.6350	12	1	309.26501	134.21296	2.2291691	2.5153578	2.4013163
21.6350	21.6400	5	1	307.78162	133.71703	2.2257257	2.4993992	2.3859550
21.6400	21.6450	13	0	306.29879	133.22129	2.2222837	2.4834467	2.3705995
21.6450	21.6500	6	0	305.06794	132.75746	2.2097631	2.4710151	2.3586578
21.6500	21.6550	4	1	303.94778	132.30754	2.1932326	2.4601320	2.3482176
21.6550	21.6600	3	0	302.69182	131.85989	2.1812550	2.4492050	2.3377317
21.6600	21.6650	6	0	300.86924	131.42082	2.1881674	2.4380741	2.3270353
21.6650	21.6700	5	0	299.04736	130.98191	2.1950771	2.4269475	2.3163429
21.6700	21.6750	4	0	297.19443	130.54112	2.1904721	2.4142655	2.3053698
21.6750	21.6800	4	0	295.32884	130.09974	2.1807928	2.4009046	2.2942789
21.6800	21.6850	3	0	293.23166	129.65783	2.1719786	2.3874007	2.2831024
21.6850	21.6900	4	1	290.17003	129.21356	2.1667608	2.3732971	2.2715651
21.6900	21.6950	0	0	287.10840	128.76928	2.1615429	2.3591935	2.2600278
21.6950	21.7000	2	1	283.84539	128.31961	2.1537988	2.3306111	2.2480862
21.7000	21.7050	2	0	280.49315	127.86750	2.1449408	2.2956480	2.2359645
21.7050	21.7100	4	0	277.53900	127.41632	2.1356199	2.2613571	2.2240320
21.7100	21.7150	5	1	276.24531	126.96987	2.1243935	2.2299278	2.2129095
21.7150	21.7200	3	0	274.95161	126.52343	2.1131670	2.1984984	2.2017871
21.7200	21.7250	2	0	274.43847	126.08270	2.1089866	2.1630184	2.1912816
21.7250	21.7300	3	1	274.27032	125.64457	2.1079205	2.1257545	2.1810504
21.7300	21.7350	0	0	274.35389	125.20554	2.1047338	2.0876151	2.1706755
21.7350	21.7400	0	0	275.48408	124.76209	2.0927263	2.0457751	2.1596861
21.7400	21.7450	1	0	276.61470	124.31848	2.0807143	2.0039193	2.1486926
21.7450	21.7500	2	0	279.07887	123.63973	2.0660943	1.9740570	2.1331153
21.7500	21.7550	1	0	282.13274	122.85687	2.0503157	1.9494700	2.1155071
21.7550	21.7600	1	1	284.90928	122.10003	2.0348127	1.9280776	2.0981579
21.7600	21.7650	4	1	286.53722	121.44994	2.0204263	1.9199375	2.0818522
21.7650	21.7700	0	0	288.16455	120.80011	2.0060454	1.9118005	2.0655528
21.7700	21.7750	4	0	289.81731	120.26628	1.9876799	1.9086146	2.0407322
21.7750	21.7800	1	0	291.48193	119.78349	1.9675476	1.9076143	2.0121384
21.7800	21.7850	6	0	292.91517	119.29149	1.9501914	1.9048737	1.9795970
21.7850	21.7900	9	0	293.38856	118.76022	1.9443513	1.8948865	1.9305663
21.7900	21.7950	4	1	293.86177	118.22916	1.9385135	1.8849031	1.8815543
21.7950	21.8000	8	0	293.66661	117.75019	1.9257665	1.8834098	1.8378117
21.8000	21.8050	8	0	293.17660	117.29448	1.9099775	1.8856639	1.7964186
21.8050	21.8100	7	0	292.62828	116.84588	1.8957966	1.8857337	1.7562564
21.8100	21.8150	4	0	291.83664	116.42676	1.8883159	1.8766958	1.7212110
21.8150	21.8200	10	1	291.04499	116.00765	1.8808353	1.8676579	1.6861657
21.8200	21.8250	5	0	289.81994	115.43286	1.8674974	1.8551962	1.6584177
21.8250	21.8300	6	0	288.40345	114.78929	1.8515730	1.8412219	1.6338846
21.8300	21.8350	4	0	287.07682	114.18225	1.8359131	1.8291632	1.6145127
21.8350	21.8400	1	0	286.12679	113.72849	1.8213849	1.8251015	1.6166608
21.8400	21.8450	4	1	285.17677	113.27473	1.8068566	1.8210399	1.6188089
21.8450	21.8500	3	0	284.35279	112.87166	1.7971205	1.8143915	1.6238996
21.8500	21.8550	2	0	283.58471	112.49107	1.7895057	1.8066003	1.6302908
21.8550	21.8600	0	0	282.67871	112.05620	1.7794569	1.7980972	1.6357606
21.8600	21.8650	1	0	281.19746	111.39480	1.7592659	1.7866189	1.6374050
21.8650	21.8700	1	0	279.71564	110.73315	1.7390671	1.7751362	1.6390500
21.8700	21.8750	2	0	278.47364	110.16776	1.7279629	1.7589295	1.6375208
21.8750	21.8800	3	1	277.33689	109.64457	1.7208696	1.7406273	1.6345888
21.8800	21.8850	2	0	276.18211	109.11462	1.7125160	1.7241642	1.6299146
21.8850	21.8900	1	0	274.94986	108.55544	1.6988915	1.7153362	1.6179679
21.8900	21.8950	0	0	273.71809	107.99647	1.6852722	1.7065116	1.6060258
21.8950	21.9000	1	2	272.76926	107.54738	1.6734379	1.6978764	1.5997830
21.9000	21.9050	3	0	271.94523	107.14673	1.6623887	1.6893218	1.5960590
21.9050	21.9100	1	0	271.05900	106.72114	1.6511439	1.6804886	1.5909907
21.9100	21.9150	1	0	269.91141	106.19066	1.6390607	1.6704751	1.5803014
21.9150	21.9200	1	1	268.76426	105.66038	1.6269822	1.6604654	1.5696161
21.9200	21.9250	1	0	267.63800	105.13958	1.6126737	1.6503460	1.5597391
21.9250	21.9300	4	0	266.52161	104.62326	1.5973861	1.6401836	1.5502254
21.9300	21.9350	0	0	265.42626	104.11553	1.5836649	1.6298967	1.5403917
21.9350	21.9400	1	0	264.41847	103.64358	1.5764918	1.6190852	1.5292157
21.9400	21.9450	3	0	263.41068	103.17163	1.5693187	1.6082737	1.5180397
21.9450	21.9500	0	1	262.17091	102.61015	1.5581218	1.5944927	1.5051068
21.9500	21.9550	2	0	260.82841	102.00901	1.5451447	1.5793971	1.4913953
21.9550	21.9600	2	1	259.58643	101.44654	1.5329246	1.5655259	1.4788984
21.9600	21.9650	1	0	258.76620	101.04644	1.5238858	1.5567889	1.4714920
21.9650	21.9700	1	0	257.94597	100.64634	1.5148469	1.5480520	1.4640855
21.9700	21.9750	3	0	257.02487	100.20799	1.5045571	1.5384622	1.4541797
21.9750	21.9800	2	0	256.05926	99.752782	1.4937151	1.5284963	1.4431686
21.9800	21.9850	2	0	255.13360	99.313452	1.4824086	1.5186538	1.4322979
21.9850	21.9900	1	0	254.37313	98.939669	1.4691468	1.5093108	1.4219959
21.9900	21.9950	5	0	253.61238	98.565744	1.4558799	1.4999642	1.4116899
21.9950	22.0000	2	0	252.90812	98.217210	1.4468458	1.4903719	1.4031696
22.0000	22.0050	2	2	252.22848	97.879725	1.4396806	1.4806656	1.3954352
22.0050	22.0100	2	0	251.50543	97.526389	1.4323067	1.4708249	1.3874154
22.0100	22.0150	1	1	250.59960	97.106140	1.4240462	1.4604036	1.3781873
22.0150	22.0200	4	0	249.69412	96.686052	1.4157887	1.4499863	1.3689627
22.0200	22.0250	3	1	248.97413	96.338656	1.4070481	1.4411509	1.3613789
22.0250	22.0300	1	1	248.33603	96.023324	1.3980901	1.4330127	1.3545191
22.0300	22.0350	4	0	247.69236	95.706042	1.3891401	1.4241543	1.3471681
22.0350	22.0400	2	0	247.02412	95.379982	1.3802056	1.4122673	1.3377498
22.0400	22.0450	3	1	246.35613	95.054045	1.3712746	1.4003848	1.3283351
22.0450	22.0500	4	0	245.64070	94.710666	1.3612785	1.3916973	1.3199684
22.0500	22.0550	2	0	244.90464	94.359751	1.3508163	1.3844297	1.3120705
22.0550	22.0600	2	0	244.29396	94.057263	1.3414569	1.3778671	1.3050791
22.0600	22.0650	6	2	244.20814	93.957492	1.3367126	1.3742547	1.3018815
22.0650	22.0700	7	0	244.12232	93.857720	1.3319683	1.3706423	1.2986840
22.0700	22.0750	12	1	244.13319	93.795274	1.3260817	1.3659573	1.2939723
22.0750	22.0800	12	2	244.18686	93.749346	1.3196883	1.3607967	1.2885894
22.0800	22.0850	9	0	244.12901	93.660726	1.3134443	1.3548074	1.2832849
22.0850	22.0900	23	2	243.60487	93.393757	1.3078379	1.3453649	1.2783192
22.0900	22.0950	20	1	243.08073	93.126788	1.3022315	1.3359224	1.2733536
22.0950	22.1000	32	3	242.85864	92.973992	1.2976043	1.3310188	1.2675988
22.1000	22.1050	19	3	242.77056	92.871865	1.2934121	1.3281293	1.2614951
22.1050	22.1100	21	0	242.72690	92.786291	1.2888381	1.3252701	1.2560002
22.1100	22.1150	17	0	242.86896	92.769831	1.2826595	1.3225327	1.2530430
22.1150	22.1200	16	1	243.01108	92.753365	1.2764785	1.3197943	1.2500848
22.1200	22.1250	8	2	243.31721	92.799378	1.2716863	1.3159844	1.2474715
22.1250	22.1300	8	1	243.69621	92.873113	1.2675071	1.3116974	1.2450098
22.1300	22.1350	9	0	244.02394	92.931701	1.2640687	1.3084210	1.2428758
22.1350	22.1400	8	0	244.13776	92.927013	1.2637240	1.3093672	1.2421098
22.1400	22.1450	5	2	244.25153	92.922326	1.2633795	1.3103129	1.2413440
22.1450	22.1500	4	0	244.18273	92.864261	1.2641809	1.3100169	1.2415124
22.1500	22.1550	3	2	244.03286	92.782478	1.2654913	1.3091695	1.2420955
22.1550	22.1600	3	0	244.04050	92.756159	1.2667806	1.3083680	1.2426598
22.1600	22.1650	0	1	244.70826	92.962234	1.2679841	1.3077570	1.2431460
22.1650	22.1700	2	0	245.37577	93.168230	1.2691870	1.3071462	1.2436320
22.1700	22.1750	0	1	245.11368	93.008032	1.2648863	1.3036010	1.2389737
22.1750	22.1800	4	1	244.43950	92.685534	1.2581473	1.2987564	1.2320368
22.1800	22.1850	3	0	243.96565	92.445415	1.2529745	1.2953020	1.2267668
22.1850	22.1900	0	0	244.33251	92.550980	1.2543735	1.2976812	1.2284915
22.1900	22.1950	2	1	244.69936	92.656545	1.2557724	1.3000604	1.2302163
22.1950	22.2000	1	4	245.33320	92.888705	1.2585105	1.3062137	1.2357536
22.2000	22.2050	1	0	246.08556	93.177050	1.2618428	1.3140418	1.2429828
22.2050	22.2100	1	1	246.70785	93.406137	1.2651064	1.3194973	1.2484852
22.2100	22.2150	1	0	246.78393	93.386478	1.2680750	1.3150007	1.2467412
22.2150	22.2200	0	1	246.86002	93.366820	1.2710437	1.3105042	1.2449973
22.2200	22.2250	1	0	246.92127	93.309135	1.2636533	1.3056980	1.2381936
22.2250	22.2300	2	0	246.97594	93.234576	1.2516647	1.3007551	1.2291447
22.2300	22.2350	3	0	247.13020	93.198774	1.2416286	1.2957396	1.2214060
22.2350	22.2400	3	0	247.70160	93.325137	1.2397490	1.2904122	1.2191390
22.2400	22.2450	2	0	248.27322	93.451549	1.2378687	1.2850828	1.2168712
22.2450	22.2500	0	0	248.62033	93.437570	1.2327270	1.2776866	1.2112363
22.2500	22.2550	1	0	248.86805	93.361312	1.2261359	1.2693696	1.2041048
22.2550	22.2600	1	1	249.38745	93.334756	1.2219995	1.2649802	1.2004364
22.2600	22.2650	3	0	251.04758	93.516654	1.2281527	1.2770585	1.2112885
22.2650	22.2700	4	0	252.70708	93.698481	1.2343035	1.2891322	1.2221365
22.2700	22.2750	1	0	253.80494	93.353659	1.2458025	1.2997444	1.2324331
22.2750	22.2800	1	0	254.65350	92.774539	1.2596839	1.3097107	1.2424885
22.2800	22.2850	0	1	255.59629	92.080353	1.2718452	1.3192440	1.2519669
22.2850	22.2900	2	0	256.93649	90.901800	1.2768104	1.3269785	1.2590425
22.2900	22.2950	3	0	258.27619	89.723696	1.2817737	1.3347101	1.2661153
22.2950	22.3000	1	0	258.86504	88.548083	1.2812674	1.3335124	1.2651341
22.3000	22.3050	1	0	259.12006	87.374224	1.2783321	1.3283492	1.2605758
22.3050	22.3100	0	0	259.57833	86.345679	1.2761914	1.3248073	1.2574100
22.3100	22.3150	0	0	260.89212	85.928257	1.2773941	1.3280866	1.2601024
22.3150	22.3200	1	0	262.20591	85.510835	1.2785968	1.3313659	1.2627948
22.3200	22.3250	3	0	263.35114	85.687545	1.2836309	1.3387333	1.2697498
22.3250	22.3300	1	0	264.42174	86.128006	1.2903666	1.3479166	1.2785980
22.3300	22.3350	0	0	265.42561	86.623631	1.2963756	1.3560207	1.2863483
22.3350	22.3400	2	1	266.14764	87.349602	1.2993251	1.3595836	1.2894797
22.3400	22.3450	2	0	266.86966	88.075572	1.3022747	1.3631464	1.2926110
22.3450	22.3500	1	1	267.95390	89.305566	1.3004867	1.3661747	1.2964901
22.3500	22.3550	3	0	269.19916	90.759680	1.2965904	1.3689644	1.3007013
22.3550	22.3600	0	0	270.47385	92.090538	1.2950701	1.3713511	1.3044507
22.3600	22.3650	0	0	271.87425	92.905541	1.3035319	1.3720479	1.3062650
22.3650	22.3700	2	0	273.27519	93.720856	1.3119970	1.3727450	1.3080800
22.3700	22.3750	5	1	274.51855	94.330508	1.3105915	1.3714007	1.3063585
22.3750	22.3800	1	0	275.69257	94.849085	1.3047981	1.3691483	1.3030642
22.3800	22.3850	3	1	276.71398	95.350836	1.2980496	1.3658586	1.2992209
22.3850	22.3900	1	2	277.09635	95.782902	1.2872763	1.3582052	1.2930638
22.3900	22.3950	0	0	277.47858	96.214803	1.2765071	1.3505546	1.2869089
22.3950	22.4000	4	0	278.23033	96.542909	1.2694900	1.3447829	1.2812769
22.4000	22.4050	0	0	279.14682	96.824950	1.2641400	1.3398452	1.2758754
22.4050	22.4100	2	0	279.98537	97.100678	1.2567599	1.3358661	1.2712347
22.4100	22.4150	1	0	280.49779	97.350392	1.2408255	1.3359117	1.2697855
22.4150	22.4200	2	0	281.01001	97.600012	1.2248972	1.3359574	1.2683368
22.4200	22.4250	1	0	281.70589	97.923703	1.2245394	1.3361173	1.2707730
22.4250	22.4300	2	0	282.48314	98.280185	1.2311120	1.3363280	1.2749371
22.4300	22.4350	4	2	283.24542	98.618207	1.2355694	1.3370628	1.2785372
22.4350	22.4400	3	1	283.94488	98.878543	1.2311124	1.3400066	1.2797618
22.4400	22.4450	1	1	284.64435	99.138879	1.2266553	1.3429504	1.2809864
22.4450	22.4500	2	0	284.91457	99.275568	1.2218829	1.3417237	1.2803821
22.4500	22.4550	0	1	284.99405	99.357326	1.2169695	1.3386433	1.2789649
22.4550	22.4600	1	0	285.21458	99.462904	1.2140308	1.3363096	1.2780348
22.4600	22.4650	4	1	286.02798	99.668471	1.2194047	1.3371214	1.2791553
22.4650	22.4700	3	0	286.84138	99.874037	1.2247786	1.3379333	1.2802758
22.4700	22.4750	0	1	287.48540	100.17428	1.2306602	1.3398331	1.2820572
22.4750	22.4800	3	0	288.05387	100.51663	1.2367669	1.3422173	1.2841327
22.4800	22.4850	1	0	288.38841	100.75146	1.2438225	1.3427517	1.2845316
22.4850	22.4900	3	0	287.74016	100.53469	1.2548781	1.3355118	1.2778843
22.4900	22.4950	1	0	287.09166	100.31784	1.2659379	1.3282691	1.2712344
22.4950	22.5000	1	0	287.12020	100.24986	1.2730275	1.3269088	1.2689756
22.5000	22.5050	0	1	287.45019	100.24813	1.2783536	1.3281666	1.2686704
22.5050	22.5100	2	0	287.60147	100.21850	1.2850486	1.3281430	1.2675713
22.5100	22.5150	0	1	287.00062	100.07136	1.2975214	1.3227243	1.2631270
22.5150	22.5200	1	1	286.40000	99.924274	1.3099895	1.3173077	1.2586844
22.5200	22.5250	1	0	286.38534	99.898311	1.3170213	1.3157696	1.2570405
22.5250	22.5300	1	0	286.63184	99.926323	1.3216327	1.3159596	1.2566433
22.5300	22.5350	0	0	286.63031	99.881044	1.3256095	1.3153957	1.2556939
22.5350	22.5400	3	0	285.58201	99.526349	1.3269157	1.3116488	1.2524114
22.5400	22.5450	0	0	284.53412	99.171789	1.3282213	1.3079034	1.2491302
22.5450	22.5500	1	0	283.85258	98.923254	1.3279929	1.3015998	1.2453973
22.5500	22.5550	1	0	283.33480	98.722134	1.3270805	1.2941590	1.2414650
22.5550	22.5600	1	1	282.73390	98.491661	1.3259384	1.2871931	1.2370996
22.5600	22.5650	1	0	281.78190	98.137186	1.3238261	1.2822293	1.2309039
22.5650	22.5700	0	1	280.82990	97.782711	1.3217139	1.2772656	1.2247083
22.5700	22.5750	2	0	280.01492	97.472463	1.3208426	1.2707419	1.2221200
22.5750	22.5800	1	0	279.26078	97.181842	1.3205234	1.2635229	1.2211366
22.5800	22.5850	1	0	278.48103	96.865479	1.3201862	1.2562580	1.2195503
22.5850	22.5900	4	0	277.59494	96.441281	1.3197738	1.2488135	1.2154275
22.5900	22.5950	1	0	276.70884	96.017083	1.3193613	1.2413691	1.2113047
22.5950	22.6000	2	0	275.42295	95.592002	1.3174240	1.2347232	1.2103291
22.6000	22.6050	0	1	273.95884	95.166598	1.3148065	1.2284349	1.2107584
22.6050	22.6100	3	0	272.57049	94.743012	1.3123313	1.2213673	1.2099726
22.6100	22.6150	2	0	271.49955	94.326411	1.3104529	1.2110002	1.2040593
22.6150	22.6200	0	0	270.42819	93.909651	1.3085737	1.2006291	1.1981438
22.6200	22.6250	1	0	268.95595	93.353583	1.3035802	1.1916927	1.1907586
22.6250	22.6300	1	0	267.30469	92.735302	1.2971970	1.1833946	1.1827167
22.6300	22.6350	1	0	265.58881	92.094242	1.2898990	1.1749988	1.1735691
22.6350	22.6400	1	1	263.60258	91.357931	1.2787455	1.1662042	1.1597623
22.6400	22.6450	0	0	261.61711	90.621901	1.2675962	1.1574129	1.1459607
22.6450	22.6500	1	1	259.53696	89.751539	1.2536034	1.1556240	1.1284535
22.6500	22.6550	1	0	257.41373	88.820838	1.2383350	1.1569625	1.1092842
22.6550	22.6600	1	0	255.41498	87.972532	1.2239871	1.1583013	1.0908247
22.6600	22.6650	0	0	253.93829	87.470689	1.2135002	1.1596435	1.0753276
22.6650	22.6700	2	0	252.46215	86.969037	1.2030173	1.1609853	1.0598363
22.6700	22.6750	0	0	250.38881	86.203246	1.1913716	1.1626764	1.0468174
22.6750	22.6800	4	0	248.05019	85.320040	1.1792137	1.1645224	1.0349086
22.6800	22.6850	2	0	245.64397	84.409263	1.1657826	1.1644165	1.0202991
22.6850	22.6900	3	0	242.95114	83.381595	1.1469645	1.1560600	0.99426819
22.6900	22.6950	1	0	240.25830	82.353927	1.1281463	1.1477035	0.96823727
22.6950	22.7000	2	0	238.12212	81.523843	1.1083205	1.1328454	0.95373452
22.7000	22.7050	1	0	236.23360	80.781651	1.0880423	1.1150880	0.94436565
22.7050	22.7100	3	0	234.26249	79.989449	1.0676973	1.0972143	0.93465618
22.7100	22.7150	5	0	231.94677	78.987738	1.0471111	1.0788857	0.92352837
22.7150	22.7200	3	1	229.63105	77.986027	1.0265248	1.0605570	0.91240056
22.7200	22.7250	6	0	227.36888	77.107319	1.0075570	1.0419329	0.90591117
22.7250	22.7300	5	0	225.13103	76.283726	0.98931564	1.0231799	0.90149559
22.7300	22.7350	1	0	222.89243	75.437723	0.97161073	1.0049758	0.89720819
22.7350	22.7400	4	0	220.64706	74.495705	0.95614320	0.98906040	0.89345532
22.7400	22.7450	5	0	218.40083	73.553326	0.94066977	0.97313893	0.88970101
22.7450	22.7500	2	0	216.46867	72.810008	0.92853749	0.96065111	0.88677477
22.7500	22.7550	0	0	214.67644	72.155454	0.91789515	0.94969447	0.88421781
22.7550	22.7600	1	0	212.84523	71.495557	0.90686972	0.93834277	0.88033708
22.7600	22.7650	3	0	210.85177	70.814084	0.89423862	0.92533532	0.87085278
22.7650	22.7700	2	0	208.85907	70.132872	0.88161235	0.91233282	0.86137210
22.7700	22.7750	1	0	206.84740	69.331388	0.86769570	0.89800768	0.84923699
22.7750	22.7800	2	0	204.82648	68.475828	0.85319684	0.88308576	0.83591053
22.7800	22.7850	1	0	202.81205	67.644322	0.83872020	0.86818582	0.82243430
22.7850	22.7900	1	0	200.82105	66.912902	0.82430864	0.85334911	0.80829771
22.7900	22.7950	0	0	198.83081	66.181762	0.80990258	0.83851806	0.79416650
22.7950	22.8000	1	0	196.57067	65.314429	0.79434708	0.82250298	0.77890600
22.8000	22.8050	1	0	194.19116	64.386716	0.77828653	0.80596765	0.76314927
22.8050	22.8100	3	0	191.94561	63.512475	0.76263943	0.78985500	0.74779367
22.8100	22.8150	2	0	190.26726	62.864671	0.74873978	0.77552876	0.73413340
22.8150	22.8200	4	0	188.58891	62.216867	0.73484013	0.76120253	0.72047313
22.8200	22.8250	0	0	186.59981	61.443875	0.71943458	0.74533160	0.70533911
22.8250	22.8300	1	0	184.47152	60.614813	0.70335352	0.72876776	0.68954400
22.8300	22.8350	0	0	182.25889	59.757586	0.68705435	0.71197550	0.67353586
22.8350	22.8400	1	0	179.69312	58.782676	0.66986313	0.69424847	0.65665665
22.8400	22.8450	0	0	177.12736	57.807766	0.65267190	0.67652145	0.63977745
22.8450	22.8500	1	0	174.80265	56.947682	0.63694164	0.66029567	0.62432894
22.8500	22.8550	1	0	172.58626	56.139160	0.62186823	0.64474487	0.60952368
22.8550	22.8600	1	0	170.25743	55.269917	0.60567419	0.62803861	0.59361481
22.8600	22.8650	0	0	167.44862	54.142119	0.58470821	0.60641204	0.57300650
22.8650	22.8700	1	0	164.63874	53.013890	0.56373424	0.58477721	0.55239033
22.8700	22.8750	0	1	161.68024	51.882976	0.54040612	0.56071126	0.52945241
22.8750	22.8800	1	0	158.65476	50.750667	0.51602117	0.53555391	0.50547223
22.8800	22.8850	0	1	155.79837	49.669638	0.49286084	0.51165844	0.48269644
22.8850	22.8900	0	0	153.66406	48.807956	0.47493445	0.49315617	0.46506816
22.8900	22.8950	1	0	151.53056	47.946602	0.45701488	0.47466096	0.44744659
22.8950	22.9000	2	0	148.95048	46.969459	0.43996309	0.45704576	0.43069714
22.9000	22.9050	2	0	146.16926	45.940046	0.42329373	0.43981827	0.41433216
22.9050	22.9100	1	0	143.24181	44.873377	0.40646796	0.42242425	0.39781520
22.9100	22.9150	1	0	139.68763	43.646399	0.38894449	0.40428837	0.38061992
22.9150	22.9200	1	0	136.13480	42.419889	0.37142770	0.38615942	0.36343119
22.9200	22.9250	0	1	132.85262	41.254585	0.35553368	0.36970901	0.34783797
22.9250	22.9300	1	0	129.69338	40.117315	0.34037468	0.35401887	0.33296737
22.9300	22.9350	0	0	126.40946	38.967791	0.32596374	0.33909564	0.31883696
22.9350	22.9400	2	0	122.59463	37.765773	0.31472526	0.32742469	0.30784562
22.9400	22.9450	0	0	118.77981	36.563754	0.30348679	0.31575374	0.29685428
22.9450	22.9500	1	0	115.65780	35.598720	0.29714515	0.30914689	0.29067656
22.9500	22.9550	0	1	112.84508	34.739496	0.29299218	0.30480346	0.28665033
22.9550	22.9600	1	1	110.00902	33.879935	0.28902802	0.30065313	0.28281007
22.9600	22.9650	0	0	107.07969	33.020666	0.28587233	0.29732988	0.27976596
22.9650	22.9700	0	1	104.15037	32.161397	0.28271663	0.29400662	0.27672185
22.9700	22.9750	0	0	101.79639	31.493527	0.28198108	0.29318835	0.27605365
22.9750	22.9800	1	0	99.700845	30.911609	0.28233104	0.29349366	0.27645111
22.9800	22.9850	1	0	97.816289	30.390212	0.28348660	0.29463360	0.27763919
22.9850	22.9900	1	0	96.824317	30.124878	0.28806372	0.29931833	0.28218527
22.9900	22.9950	0	1	95.831967	29.859443	0.29264260	0.30400484	0.28673310
22.9950	23.0000	1	0	95.267034	29.771269	0.29975221	0.31130552	0.29377487
